#  E (eV)   dos(E)     Int dos(E) EFermi =    6.352 eV
  -9.000  0.0000E+00  0.0000E+00
  -8.990  0.0000E+00  0.0000E+00
  -8.980  0.0000E+00  0.0000E+00
  -8.970  0.0000E+00  0.0000E+00
  -8.960  0.0000E+00  0.0000E+00
  -8.950  0.0000E+00  0.0000E+00
  -8.940  0.0000E+00  0.0000E+00
  -8.930  0.0000E+00  0.0000E+00
  -8.920  0.0000E+00  0.0000E+00
  -8.910  0.0000E+00  0.0000E+00
  -8.900  0.0000E+00  0.0000E+00
  -8.890  0.0000E+00  0.0000E+00
  -8.880  0.0000E+00  0.0000E+00
  -8.870  0.0000E+00  0.0000E+00
  -8.860  0.0000E+00  0.0000E+00
  -8.850  0.0000E+00  0.0000E+00
  -8.840  0.0000E+00  0.0000E+00
  -8.830  0.0000E+00  0.0000E+00
  -8.820  0.0000E+00  0.0000E+00
  -8.810  0.0000E+00  0.0000E+00
  -8.800  0.0000E+00  0.0000E+00
  -8.790  0.0000E+00  0.0000E+00
  -8.780  0.0000E+00  0.0000E+00
  -8.770  0.0000E+00  0.0000E+00
  -8.760  0.0000E+00  0.0000E+00
  -8.750  0.0000E+00  0.0000E+00
  -8.740  0.0000E+00  0.0000E+00
  -8.730  0.0000E+00  0.0000E+00
  -8.720  0.0000E+00  0.0000E+00
  -8.710  0.0000E+00  0.0000E+00
  -8.700  0.0000E+00  0.0000E+00
  -8.690  0.0000E+00  0.0000E+00
  -8.680  0.0000E+00  0.0000E+00
  -8.670  0.0000E+00  0.0000E+00
  -8.660  0.0000E+00  0.0000E+00
  -8.650  0.0000E+00  0.0000E+00
  -8.640  0.0000E+00  0.0000E+00
  -8.630  0.0000E+00  0.0000E+00
  -8.620  0.0000E+00  0.0000E+00
  -8.610  0.0000E+00  0.0000E+00
  -8.600  0.0000E+00  0.0000E+00
  -8.590  0.0000E+00  0.0000E+00
  -8.580  0.0000E+00  0.0000E+00
  -8.570  0.0000E+00  0.0000E+00
  -8.560  0.0000E+00  0.0000E+00
  -8.550  0.0000E+00  0.0000E+00
  -8.540  0.0000E+00  0.0000E+00
  -8.530  0.0000E+00  0.0000E+00
  -8.520  0.0000E+00  0.0000E+00
  -8.510  0.0000E+00  0.0000E+00
  -8.500  0.0000E+00  0.0000E+00
  -8.490  0.0000E+00  0.0000E+00
  -8.480  0.0000E+00  0.0000E+00
  -8.470  0.0000E+00  0.0000E+00
  -8.460  0.0000E+00  0.0000E+00
  -8.450  0.0000E+00  0.0000E+00
  -8.440  0.0000E+00  0.0000E+00
  -8.430  0.0000E+00  0.0000E+00
  -8.420  0.0000E+00  0.0000E+00
  -8.410  0.0000E+00  0.0000E+00
  -8.400  0.0000E+00  0.0000E+00
  -8.390  0.0000E+00  0.0000E+00
  -8.380  0.0000E+00  0.0000E+00
  -8.370  0.0000E+00  0.0000E+00
  -8.360  0.0000E+00  0.0000E+00
  -8.350  0.0000E+00  0.0000E+00
  -8.340  0.0000E+00  0.0000E+00
  -8.330  0.0000E+00  0.0000E+00
  -8.320  0.0000E+00  0.0000E+00
  -8.310  0.0000E+00  0.0000E+00
  -8.300  0.0000E+00  0.0000E+00
  -8.290  0.0000E+00  0.0000E+00
  -8.280  0.0000E+00  0.0000E+00
  -8.270  0.0000E+00  0.0000E+00
  -8.260  0.0000E+00  0.0000E+00
  -8.250  0.0000E+00  0.0000E+00
  -8.240  0.0000E+00  0.0000E+00
  -8.230  0.0000E+00  0.0000E+00
  -8.220  0.0000E+00  0.0000E+00
  -8.210  0.0000E+00  0.0000E+00
  -8.200  0.0000E+00  0.0000E+00
  -8.190  0.0000E+00  0.0000E+00
  -8.180  0.0000E+00  0.0000E+00
  -8.170  0.0000E+00  0.0000E+00
  -8.160  0.0000E+00  0.0000E+00
  -8.150  0.0000E+00  0.0000E+00
  -8.140  0.0000E+00  0.0000E+00
  -8.130  0.0000E+00  0.0000E+00
  -8.120  0.0000E+00  0.0000E+00
  -8.110  0.0000E+00  0.0000E+00
  -8.100  0.0000E+00  0.0000E+00
  -8.090  0.0000E+00  0.0000E+00
  -8.080  0.0000E+00  0.0000E+00
  -8.070  0.0000E+00  0.0000E+00
  -8.060  0.0000E+00  0.0000E+00
  -8.050  0.0000E+00  0.0000E+00
  -8.040  0.0000E+00  0.0000E+00
  -8.030  0.0000E+00  0.0000E+00
  -8.020  0.0000E+00  0.0000E+00
  -8.010  0.0000E+00  0.0000E+00
  -8.000  0.0000E+00  0.0000E+00
  -7.990  0.0000E+00  0.0000E+00
  -7.980  0.0000E+00  0.0000E+00
  -7.970  0.0000E+00  0.0000E+00
  -7.960  0.0000E+00  0.0000E+00
  -7.950  0.0000E+00  0.0000E+00
  -7.940  0.0000E+00  0.0000E+00
  -7.930  0.0000E+00  0.0000E+00
  -7.920  0.0000E+00  0.0000E+00
  -7.910  0.0000E+00  0.0000E+00
  -7.900  0.0000E+00  0.0000E+00
  -7.890  0.0000E+00  0.0000E+00
  -7.880  0.0000E+00  0.0000E+00
  -7.870  0.0000E+00  0.0000E+00
  -7.860  0.0000E+00  0.0000E+00
  -7.850  0.0000E+00  0.0000E+00
  -7.840  0.0000E+00  0.0000E+00
  -7.830  0.0000E+00  0.0000E+00
  -7.820  0.0000E+00  0.0000E+00
  -7.810  0.0000E+00  0.0000E+00
  -7.800  0.0000E+00  0.0000E+00
  -7.790  0.0000E+00  0.0000E+00
  -7.780  0.0000E+00  0.0000E+00
  -7.770  0.0000E+00  0.0000E+00
  -7.760  0.0000E+00  0.0000E+00
  -7.750  0.0000E+00  0.0000E+00
  -7.740  0.0000E+00  0.0000E+00
  -7.730  0.0000E+00  0.0000E+00
  -7.720  0.0000E+00  0.0000E+00
  -7.710  0.0000E+00  0.0000E+00
  -7.700  0.0000E+00  0.0000E+00
  -7.690  0.0000E+00  0.0000E+00
  -7.680  0.0000E+00  0.0000E+00
  -7.670  0.0000E+00  0.0000E+00
  -7.660  0.0000E+00  0.0000E+00
  -7.650  0.0000E+00  0.0000E+00
  -7.640  0.0000E+00  0.0000E+00
  -7.630  0.0000E+00  0.0000E+00
  -7.620  0.0000E+00  0.0000E+00
  -7.610  0.0000E+00  0.0000E+00
  -7.600  0.0000E+00  0.0000E+00
  -7.590  0.0000E+00  0.0000E+00
  -7.580  0.0000E+00  0.0000E+00
  -7.570  0.0000E+00  0.0000E+00
  -7.560  0.0000E+00  0.0000E+00
  -7.550  0.0000E+00  0.0000E+00
  -7.540  0.0000E+00  0.0000E+00
  -7.530  0.0000E+00  0.0000E+00
  -7.520  0.0000E+00  0.0000E+00
  -7.510  0.0000E+00  0.0000E+00
  -7.500  0.0000E+00  0.0000E+00
  -7.490  0.0000E+00  0.0000E+00
  -7.480  0.0000E+00  0.0000E+00
  -7.470  0.0000E+00  0.0000E+00
  -7.460  0.0000E+00  0.0000E+00
  -7.450  0.0000E+00  0.0000E+00
  -7.440  0.0000E+00  0.0000E+00
  -7.430  0.0000E+00  0.0000E+00
  -7.420  0.0000E+00  0.0000E+00
  -7.410  0.0000E+00  0.0000E+00
  -7.400  0.0000E+00  0.0000E+00
  -7.390  0.0000E+00  0.0000E+00
  -7.380  0.0000E+00  0.0000E+00
  -7.370  0.0000E+00  0.0000E+00
  -7.360  0.0000E+00  0.0000E+00
  -7.350  0.0000E+00  0.0000E+00
  -7.340  0.0000E+00  0.0000E+00
  -7.330  0.0000E+00  0.0000E+00
  -7.320  0.0000E+00  0.0000E+00
  -7.310  0.0000E+00  0.0000E+00
  -7.300  0.0000E+00  0.0000E+00
  -7.290  0.0000E+00  0.0000E+00
  -7.280  0.0000E+00  0.0000E+00
  -7.270  0.0000E+00  0.0000E+00
  -7.260  0.0000E+00  0.0000E+00
  -7.250  0.0000E+00  0.0000E+00
  -7.240  0.0000E+00  0.0000E+00
  -7.230  0.0000E+00  0.0000E+00
  -7.220  0.0000E+00  0.0000E+00
  -7.210  0.0000E+00  0.0000E+00
  -7.200  0.0000E+00  0.0000E+00
  -7.190  0.0000E+00  0.0000E+00
  -7.180  0.0000E+00  0.0000E+00
  -7.170  0.0000E+00  0.0000E+00
  -7.160  0.0000E+00  0.0000E+00
  -7.150  0.0000E+00  0.0000E+00
  -7.140  0.0000E+00  0.0000E+00
  -7.130  0.0000E+00  0.0000E+00
  -7.120  0.0000E+00  0.0000E+00
  -7.110  0.0000E+00  0.0000E+00
  -7.100  0.0000E+00  0.0000E+00
  -7.090  0.0000E+00  0.0000E+00
  -7.080  0.0000E+00  0.0000E+00
  -7.070  0.0000E+00  0.0000E+00
  -7.060  0.0000E+00  0.0000E+00
  -7.050  0.0000E+00  0.0000E+00
  -7.040  0.0000E+00  0.0000E+00
  -7.030  0.0000E+00  0.0000E+00
  -7.020  0.0000E+00  0.0000E+00
  -7.010  0.0000E+00  0.0000E+00
  -7.000  0.0000E+00  0.0000E+00
  -6.990  0.0000E+00  0.0000E+00
  -6.980  0.0000E+00  0.0000E+00
  -6.970  0.0000E+00  0.0000E+00
  -6.960  0.0000E+00  0.0000E+00
  -6.950  0.0000E+00  0.0000E+00
  -6.940  0.0000E+00  0.0000E+00
  -6.930  0.0000E+00  0.0000E+00
  -6.920  0.0000E+00  0.0000E+00
  -6.910  0.0000E+00  0.0000E+00
  -6.900  0.0000E+00  0.0000E+00
  -6.890  0.0000E+00  0.0000E+00
  -6.880  0.0000E+00  0.0000E+00
  -6.870  0.0000E+00  0.0000E+00
  -6.860  0.0000E+00  0.0000E+00
  -6.850  0.0000E+00  0.0000E+00
  -6.840  0.0000E+00  0.0000E+00
  -6.830  0.0000E+00  0.0000E+00
  -6.820  0.0000E+00  0.0000E+00
  -6.810  0.0000E+00  0.0000E+00
  -6.800  0.0000E+00  0.0000E+00
  -6.790  0.0000E+00  0.0000E+00
  -6.780  0.0000E+00  0.0000E+00
  -6.770  0.0000E+00  0.0000E+00
  -6.760  0.0000E+00  0.0000E+00
  -6.750  0.0000E+00  0.0000E+00
  -6.740  0.0000E+00  0.0000E+00
  -6.730  0.0000E+00  0.0000E+00
  -6.720  0.0000E+00  0.0000E+00
  -6.710  0.0000E+00  0.0000E+00
  -6.700  0.0000E+00  0.0000E+00
  -6.690  0.0000E+00  0.0000E+00
  -6.680  0.0000E+00  0.0000E+00
  -6.670  0.0000E+00  0.0000E+00
  -6.660  0.0000E+00  0.0000E+00
  -6.650  0.0000E+00  0.0000E+00
  -6.640  0.0000E+00  0.0000E+00
  -6.630  0.0000E+00  0.0000E+00
  -6.620  0.0000E+00  0.0000E+00
  -6.610  0.0000E+00  0.0000E+00
  -6.600  0.0000E+00  0.0000E+00
  -6.590  0.0000E+00  0.0000E+00
  -6.580  0.0000E+00  0.0000E+00
  -6.570  0.0000E+00  0.0000E+00
  -6.560  0.0000E+00  0.0000E+00
  -6.550  0.0000E+00  0.0000E+00
  -6.540  0.0000E+00  0.0000E+00
  -6.530  0.0000E+00  0.0000E+00
  -6.520  0.0000E+00  0.0000E+00
  -6.510  0.0000E+00  0.0000E+00
  -6.500  0.0000E+00  0.0000E+00
  -6.490  0.0000E+00  0.0000E+00
  -6.480  0.0000E+00  0.0000E+00
  -6.470  0.0000E+00  0.0000E+00
  -6.460  0.0000E+00  0.0000E+00
  -6.450  0.0000E+00  0.0000E+00
  -6.440  0.0000E+00  0.0000E+00
  -6.430  0.0000E+00  0.0000E+00
  -6.420  0.0000E+00  0.0000E+00
  -6.410  0.0000E+00  0.0000E+00
  -6.400  0.0000E+00  0.0000E+00
  -6.390  0.0000E+00  0.0000E+00
  -6.380  0.0000E+00  0.0000E+00
  -6.370  0.0000E+00  0.0000E+00
  -6.360  0.0000E+00  0.0000E+00
  -6.350  0.0000E+00  0.0000E+00
  -6.340  0.0000E+00  0.0000E+00
  -6.330  0.0000E+00  0.0000E+00
  -6.320  0.0000E+00  0.0000E+00
  -6.310  0.0000E+00  0.0000E+00
  -6.300  0.0000E+00  0.0000E+00
  -6.290  0.0000E+00  0.0000E+00
  -6.280  0.0000E+00  0.0000E+00
  -6.270  0.0000E+00  0.0000E+00
  -6.260  0.0000E+00  0.0000E+00
  -6.250  0.0000E+00  0.0000E+00
  -6.240  0.0000E+00  0.0000E+00
  -6.230  0.0000E+00  0.0000E+00
  -6.220  0.0000E+00  0.0000E+00
  -6.210  0.0000E+00  0.0000E+00
  -6.200  0.0000E+00  0.0000E+00
  -6.190  0.0000E+00  0.0000E+00
  -6.180  0.0000E+00  0.0000E+00
  -6.170  0.0000E+00  0.0000E+00
  -6.160  0.0000E+00  0.0000E+00
  -6.150  0.0000E+00  0.0000E+00
  -6.140  0.0000E+00  0.0000E+00
  -6.130  0.0000E+00  0.0000E+00
  -6.120  0.0000E+00  0.0000E+00
  -6.110  0.0000E+00  0.0000E+00
  -6.100  0.0000E+00  0.0000E+00
  -6.090  0.0000E+00  0.0000E+00
  -6.080  0.0000E+00  0.0000E+00
  -6.070  0.0000E+00  0.0000E+00
  -6.060  0.0000E+00  0.0000E+00
  -6.050  0.0000E+00  0.0000E+00
  -6.040  0.0000E+00  0.0000E+00
  -6.030  0.0000E+00  0.0000E+00
  -6.020  0.0000E+00  0.0000E+00
  -6.010  0.0000E+00  0.0000E+00
  -6.000  0.0000E+00  0.0000E+00
  -5.990  0.0000E+00  0.0000E+00
  -5.980  0.0000E+00  0.0000E+00
  -5.970  0.0000E+00  0.0000E+00
  -5.960  0.0000E+00  0.0000E+00
  -5.950  0.0000E+00  0.0000E+00
  -5.940  0.0000E+00  0.0000E+00
  -5.930  0.0000E+00  0.0000E+00
  -5.920  0.0000E+00  0.0000E+00
  -5.910  0.0000E+00  0.0000E+00
  -5.900  0.0000E+00  0.0000E+00
  -5.890  0.0000E+00  0.0000E+00
  -5.880  0.0000E+00  0.0000E+00
  -5.870  0.0000E+00  0.0000E+00
  -5.860  0.0000E+00  0.0000E+00
  -5.850  0.0000E+00  0.0000E+00
  -5.840  0.0000E+00  0.0000E+00
  -5.830  0.0000E+00  0.0000E+00
  -5.820  0.3298E-05  0.1452E-08
  -5.810  0.2423E-03  0.9142E-06
  -5.800  0.8593E-03  0.6107E-05
  -5.790  0.1854E-02  0.1936E-04
  -5.780  0.3227E-02  0.4445E-04
  -5.770  0.4979E-02  0.8517E-04
  -5.760  0.7108E-02  0.1453E-03
  -5.750  0.9615E-02  0.2286E-03
  -5.740  0.1250E-01  0.3388E-03
  -5.730  0.1576E-01  0.4799E-03
  -5.720  0.1941E-01  0.6554E-03
  -5.710  0.2342E-01  0.8692E-03
  -5.700  0.2782E-01  0.1125E-02
  -5.690  0.3260E-01  0.1427E-02
  -5.680  0.3775E-01  0.1778E-02
  -5.670  0.4328E-01  0.2183E-02
  -5.660  0.4919E-01  0.2645E-02
  -5.650  0.5548E-01  0.3168E-02
  -5.640  0.6215E-01  0.3756E-02
  -5.630  0.6919E-01  0.4413E-02
  -5.620  0.8893E-01  0.5153E-02
  -5.610  0.1485E+00  0.6356E-02
  -5.600  0.1889E+00  0.8059E-02
  -5.590  0.2102E+00  0.1007E-01
  -5.580  0.2125E+00  0.1220E-01
  -5.570  0.1956E+00  0.1426E-01
  -5.560  0.1597E+00  0.1605E-01
  -5.550  0.1347E+00  0.1746E-01
  -5.540  0.1381E+00  0.1882E-01
  -5.530  0.1416E+00  0.2022E-01
  -5.520  0.1451E+00  0.2165E-01
  -5.510  0.1487E+00  0.2312E-01
  -5.500  0.1523E+00  0.2463E-01
  -5.490  0.1559E+00  0.2617E-01
  -5.480  0.1596E+00  0.2775E-01
  -5.470  0.1633E+00  0.2936E-01
  -5.460  0.1671E+00  0.3101E-01
  -5.450  0.1708E+00  0.3270E-01
  -5.440  0.1746E+00  0.3443E-01
  -5.430  0.1785E+00  0.3619E-01
  -5.420  0.1823E+00  0.3800E-01
  -5.410  0.1862E+00  0.3984E-01
  -5.400  0.1902E+00  0.4172E-01
  -5.390  0.1942E+00  0.4364E-01
  -5.380  0.1982E+00  0.4561E-01
  -5.370  0.2022E+00  0.4761E-01
  -5.360  0.2063E+00  0.4965E-01
  -5.350  0.2104E+00  0.5173E-01
  -5.340  0.2145E+00  0.5386E-01
  -5.330  0.2187E+00  0.5603E-01
  -5.320  0.2229E+00  0.5823E-01
  -5.310  0.2272E+00  0.6048E-01
  -5.300  0.2315E+00  0.6278E-01
  -5.290  0.2368E+00  0.6512E-01
  -5.280  0.2436E+00  0.6752E-01
  -5.270  0.2500E+00  0.6999E-01
  -5.260  0.2562E+00  0.7252E-01
  -5.250  0.2620E+00  0.7511E-01
  -5.240  0.2676E+00  0.7776E-01
  -5.230  0.2728E+00  0.8046E-01
  -5.220  0.2777E+00  0.8321E-01
  -5.210  0.2823E+00  0.8601E-01
  -5.200  0.2865E+00  0.8886E-01
  -5.190  0.2905E+00  0.9174E-01
  -5.180  0.2942E+00  0.9466E-01
  -5.170  0.2975E+00  0.9762E-01
  -5.160  0.3005E+00  0.1006E+00
  -5.150  0.3032E+00  0.1036E+00
  -5.140  0.3056E+00  0.1067E+00
  -5.130  0.3077E+00  0.1097E+00
  -5.120  0.3095E+00  0.1128E+00
  -5.110  0.3109E+00  0.1159E+00
  -5.100  0.3121E+00  0.1190E+00
  -5.090  0.3070E+00  0.1222E+00
  -5.080  0.3012E+00  0.1252E+00
  -5.070  0.2973E+00  0.1282E+00
  -5.060  0.2952E+00  0.1311E+00
  -5.050  0.2949E+00  0.1341E+00
  -5.040  0.2966E+00  0.1370E+00
  -5.030  0.2990E+00  0.1400E+00
  -5.020  0.3015E+00  0.1430E+00
  -5.010  0.3040E+00  0.1461E+00
  -5.000  0.3065E+00  0.1491E+00
  -4.990  0.3091E+00  0.1522E+00
  -4.980  0.3117E+00  0.1553E+00
  -4.970  0.3143E+00  0.1584E+00
  -4.960  0.3170E+00  0.1616E+00
  -4.950  0.3197E+00  0.1648E+00
  -4.940  0.3224E+00  0.1680E+00
  -4.930  0.3252E+00  0.1712E+00
  -4.920  0.3280E+00  0.1745E+00
  -4.910  0.3308E+00  0.1778E+00
  -4.900  0.3336E+00  0.1811E+00
  -4.890  0.3365E+00  0.1844E+00
  -4.880  0.3394E+00  0.1878E+00
  -4.870  0.3424E+00  0.1912E+00
  -4.860  0.3454E+00  0.1947E+00
  -4.850  0.3484E+00  0.1981E+00
  -4.840  0.3515E+00  0.2016E+00
  -4.830  0.3545E+00  0.2052E+00
  -4.820  0.3577E+00  0.2087E+00
  -4.810  0.3608E+00  0.2123E+00
  -4.800  0.3640E+00  0.2159E+00
  -4.790  0.3672E+00  0.2196E+00
  -4.780  0.3705E+00  0.2233E+00
  -4.770  0.3737E+00  0.2270E+00
  -4.760  0.3770E+00  0.2308E+00
  -4.750  0.3804E+00  0.2345E+00
  -4.740  0.3837E+00  0.2384E+00
  -4.730  0.3870E+00  0.2422E+00
  -4.720  0.3904E+00  0.2461E+00
  -4.710  0.3937E+00  0.2500E+00
  -4.700  0.3970E+00  0.2540E+00
  -4.690  0.4004E+00  0.2580E+00
  -4.680  0.4037E+00  0.2620E+00
  -4.670  0.4071E+00  0.2660E+00
  -4.660  0.4105E+00  0.2701E+00
  -4.650  0.4138E+00  0.2743E+00
  -4.640  0.4172E+00  0.2784E+00
  -4.630  0.4206E+00  0.2826E+00
  -4.620  0.4240E+00  0.2868E+00
  -4.610  0.4273E+00  0.2911E+00
  -4.600  0.4308E+00  0.2954E+00
  -4.590  0.4342E+00  0.2997E+00
  -4.580  0.4373E+00  0.3040E+00
  -4.570  0.4400E+00  0.3084E+00
  -4.560  0.4423E+00  0.3128E+00
  -4.550  0.4443E+00  0.3173E+00
  -4.540  0.4459E+00  0.3217E+00
  -4.530  0.4472E+00  0.3262E+00
  -4.520  0.4487E+00  0.3307E+00
  -4.510  0.4511E+00  0.3352E+00
  -4.500  0.4535E+00  0.3397E+00
  -4.490  0.4559E+00  0.3442E+00
  -4.480  0.4583E+00  0.3488E+00
  -4.470  0.4607E+00  0.3534E+00
  -4.460  0.4631E+00  0.3580E+00
  -4.450  0.4655E+00  0.3627E+00
  -4.440  0.4679E+00  0.3673E+00
  -4.430  0.4703E+00  0.3720E+00
  -4.420  0.4727E+00  0.3767E+00
  -4.410  0.4751E+00  0.3815E+00
  -4.400  0.4775E+00  0.3862E+00
  -4.390  0.4799E+00  0.3910E+00
  -4.380  0.4824E+00  0.3958E+00
  -4.370  0.4848E+00  0.4007E+00
  -4.360  0.4872E+00  0.4055E+00
  -4.350  0.4896E+00  0.4104E+00
  -4.340  0.4921E+00  0.4153E+00
  -4.330  0.4945E+00  0.4203E+00
  -4.320  0.4969E+00  0.4252E+00
  -4.310  0.4994E+00  0.4302E+00
  -4.300  0.5014E+00  0.4352E+00
  -4.290  0.5028E+00  0.4402E+00
  -4.280  0.5043E+00  0.4453E+00
  -4.270  0.5060E+00  0.4503E+00
  -4.260  0.5079E+00  0.4554E+00
  -4.250  0.5100E+00  0.4605E+00
  -4.240  0.5123E+00  0.4656E+00
  -4.230  0.5148E+00  0.4707E+00
  -4.220  0.5174E+00  0.4759E+00
  -4.210  0.5202E+00  0.4811E+00
  -4.200  0.5232E+00  0.4863E+00
  -4.190  0.5264E+00  0.4915E+00
  -4.180  0.5298E+00  0.4968E+00
  -4.170  0.5333E+00  0.5021E+00
  -4.160  0.5370E+00  0.5075E+00
  -4.150  0.5407E+00  0.5129E+00
  -4.140  0.5446E+00  0.5183E+00
  -4.130  0.5485E+00  0.5238E+00
  -4.120  0.5524E+00  0.5293E+00
  -4.110  0.5565E+00  0.5348E+00
  -4.100  0.5607E+00  0.5404E+00
  -4.090  0.5649E+00  0.5460E+00
  -4.080  0.5692E+00  0.5517E+00
  -4.070  0.5736E+00  0.5574E+00
  -4.060  0.5782E+00  0.5632E+00
  -4.050  0.5828E+00  0.5690E+00
  -4.040  0.5874E+00  0.5748E+00
  -4.030  0.5922E+00  0.5807E+00
  -4.020  0.5969E+00  0.5867E+00
  -4.010  0.6017E+00  0.5927E+00
  -4.000  0.6066E+00  0.5987E+00
  -3.990  0.6114E+00  0.6048E+00
  -3.980  0.6164E+00  0.6109E+00
  -3.970  0.6214E+00  0.6171E+00
  -3.960  0.6264E+00  0.6234E+00
  -3.950  0.6315E+00  0.6296E+00
  -3.940  0.6366E+00  0.6360E+00
  -3.930  0.6418E+00  0.6424E+00
  -3.920  0.6470E+00  0.6488E+00
  -3.910  0.6522E+00  0.6553E+00
  -3.900  0.6575E+00  0.6619E+00
  -3.890  0.6629E+00  0.6685E+00
  -3.880  0.6683E+00  0.6751E+00
  -3.870  0.6737E+00  0.6818E+00
  -3.860  0.6792E+00  0.6886E+00
  -3.850  0.6847E+00  0.6954E+00
  -3.840  0.6903E+00  0.7023E+00
  -3.830  0.6959E+00  0.7092E+00
  -3.820  0.7016E+00  0.7162E+00
  -3.810  0.7074E+00  0.7233E+00
  -3.800  0.7134E+00  0.7304E+00
  -3.790  0.7194E+00  0.7375E+00
  -3.780  0.7256E+00  0.7448E+00
  -3.770  0.7319E+00  0.7520E+00
  -3.760  0.7384E+00  0.7594E+00
  -3.750  0.7449E+00  0.7668E+00
  -3.740  0.7516E+00  0.7743E+00
  -3.730  0.7584E+00  0.7818E+00
  -3.720  0.7653E+00  0.7895E+00
  -3.710  0.7723E+00  0.7971E+00
  -3.700  0.8016E+00  0.8050E+00
  -3.690  0.8430E+00  0.8132E+00
  -3.680  0.8762E+00  0.8218E+00
  -3.670  0.9011E+00  0.8307E+00
  -3.660  0.9177E+00  0.8398E+00
  -3.650  0.9279E+00  0.8490E+00
  -3.640  0.9371E+00  0.8583E+00
  -3.630  0.9453E+00  0.8678E+00
  -3.620  0.9527E+00  0.8772E+00
  -3.610  0.9592E+00  0.8868E+00
  -3.600  0.9648E+00  0.8964E+00
  -3.590  0.9696E+00  0.9061E+00
  -3.580  0.9734E+00  0.9158E+00
  -3.570  0.9764E+00  0.9256E+00
  -3.560  0.9784E+00  0.9353E+00
  -3.550  0.9793E+00  0.9451E+00
  -3.540  0.9777E+00  0.9549E+00
  -3.530  0.9736E+00  0.9647E+00
  -3.520  0.9671E+00  0.9744E+00
  -3.510  0.9581E+00  0.9840E+00
  -3.500  0.9465E+00  0.9935E+00
  -3.490  0.9325E+00  0.1003E+01
  -3.480  0.9161E+00  0.1012E+01
  -3.470  0.8971E+00  0.1021E+01
  -3.460  0.8947E+00  0.1030E+01
  -3.450  0.8924E+00  0.1039E+01
  -3.440  0.8901E+00  0.1048E+01
  -3.430  0.8879E+00  0.1057E+01
  -3.420  0.8857E+00  0.1066E+01
  -3.410  0.8836E+00  0.1075E+01
  -3.400  0.8814E+00  0.1083E+01
  -3.390  0.8793E+00  0.1092E+01
  -3.380  0.8772E+00  0.1101E+01
  -3.370  0.8752E+00  0.1110E+01
  -3.360  0.8732E+00  0.1119E+01
  -3.350  0.8712E+00  0.1127E+01
  -3.340  0.8692E+00  0.1136E+01
  -3.330  0.8673E+00  0.1145E+01
  -3.320  0.8654E+00  0.1153E+01
  -3.310  0.8635E+00  0.1162E+01
  -3.300  0.8616E+00  0.1171E+01
  -3.290  0.8598E+00  0.1179E+01
  -3.280  0.8580E+00  0.1188E+01
  -3.270  0.8561E+00  0.1196E+01
  -3.260  0.8543E+00  0.1205E+01
  -3.250  0.8525E+00  0.1213E+01
  -3.240  0.8506E+00  0.1222E+01
  -3.230  0.8488E+00  0.1230E+01
  -3.220  0.8470E+00  0.1239E+01
  -3.210  0.8452E+00  0.1247E+01
  -3.200  0.8434E+00  0.1256E+01
  -3.190  0.8416E+00  0.1264E+01
  -3.180  0.8398E+00  0.1273E+01
  -3.170  0.8380E+00  0.1281E+01
  -3.160  0.8363E+00  0.1289E+01
  -3.150  0.8346E+00  0.1298E+01
  -3.140  0.8330E+00  0.1306E+01
  -3.130  0.8314E+00  0.1314E+01
  -3.120  0.8299E+00  0.1323E+01
  -3.110  0.8284E+00  0.1331E+01
  -3.100  0.8270E+00  0.1339E+01
  -3.090  0.8257E+00  0.1348E+01
  -3.080  0.8244E+00  0.1356E+01
  -3.070  0.8231E+00  0.1364E+01
  -3.060  0.8219E+00  0.1372E+01
  -3.050  0.8208E+00  0.1381E+01
  -3.040  0.8197E+00  0.1389E+01
  -3.030  0.8187E+00  0.1397E+01
  -3.020  0.8095E+00  0.1405E+01
  -3.010  0.8023E+00  0.1413E+01
  -3.000  0.7976E+00  0.1421E+01
  -2.990  0.7954E+00  0.1429E+01
  -2.980  0.7956E+00  0.1437E+01
  -2.970  0.7938E+00  0.1445E+01
  -2.960  0.7907E+00  0.1453E+01
  -2.950  0.7877E+00  0.1461E+01
  -2.940  0.7850E+00  0.1469E+01
  -2.930  0.7823E+00  0.1477E+01
  -2.920  0.7799E+00  0.1484E+01
  -2.910  0.7777E+00  0.1492E+01
  -2.900  0.7756E+00  0.1500E+01
  -2.890  0.7737E+00  0.1508E+01
  -2.880  0.7720E+00  0.1515E+01
  -2.870  0.7704E+00  0.1523E+01
  -2.860  0.7691E+00  0.1531E+01
  -2.850  0.7679E+00  0.1538E+01
  -2.840  0.7669E+00  0.1546E+01
  -2.830  0.7660E+00  0.1554E+01
  -2.820  0.7654E+00  0.1561E+01
  -2.810  0.7649E+00  0.1569E+01
  -2.800  0.7646E+00  0.1577E+01
  -2.790  0.7645E+00  0.1584E+01
  -2.780  0.7630E+00  0.1592E+01
  -2.770  0.7597E+00  0.1600E+01
  -2.760  0.7564E+00  0.1607E+01
  -2.750  0.7530E+00  0.1615E+01
  -2.740  0.7496E+00  0.1622E+01
  -2.730  0.7463E+00  0.1630E+01
  -2.720  0.7429E+00  0.1637E+01
  -2.710  0.7394E+00  0.1645E+01
  -2.700  0.7360E+00  0.1652E+01
  -2.690  0.7325E+00  0.1659E+01
  -2.680  0.7290E+00  0.1667E+01
  -2.670  0.7255E+00  0.1674E+01
  -2.660  0.7220E+00  0.1681E+01
  -2.650  0.7184E+00  0.1688E+01
  -2.640  0.7149E+00  0.1696E+01
  -2.630  0.7113E+00  0.1703E+01
  -2.620  0.7077E+00  0.1710E+01
  -2.610  0.7040E+00  0.1717E+01
  -2.600  0.6994E+00  0.1724E+01
  -2.590  0.6943E+00  0.1731E+01
  -2.580  0.6889E+00  0.1738E+01
  -2.570  0.6832E+00  0.1745E+01
  -2.560  0.6771E+00  0.1751E+01
  -2.550  0.6708E+00  0.1758E+01
  -2.540  0.6642E+00  0.1765E+01
  -2.530  0.6572E+00  0.1771E+01
  -2.520  0.6500E+00  0.1778E+01
  -2.510  0.6425E+00  0.1784E+01
  -2.500  0.6346E+00  0.1791E+01
  -2.490  0.6265E+00  0.1797E+01
  -2.480  0.6180E+00  0.1803E+01
  -2.470  0.6092E+00  0.1809E+01
  -2.460  0.6002E+00  0.1815E+01
  -2.450  0.5908E+00  0.1821E+01
  -2.440  0.5805E+00  0.1827E+01
  -2.430  0.5684E+00  0.1833E+01
  -2.420  0.5564E+00  0.1839E+01
  -2.410  0.5446E+00  0.1844E+01
  -2.400  0.5328E+00  0.1850E+01
  -2.390  0.5211E+00  0.1855E+01
  -2.380  0.5096E+00  0.1860E+01
  -2.370  0.4981E+00  0.1865E+01
  -2.360  0.4867E+00  0.1870E+01
  -2.350  0.4755E+00  0.1875E+01
  -2.340  0.4643E+00  0.1879E+01
  -2.330  0.4532E+00  0.1884E+01
  -2.320  0.4423E+00  0.1889E+01
  -2.310  0.4314E+00  0.1893E+01
  -2.300  0.4206E+00  0.1897E+01
  -2.290  0.4099E+00  0.1901E+01
  -2.280  0.3994E+00  0.1905E+01
  -2.270  0.3889E+00  0.1909E+01
  -2.260  0.3785E+00  0.1913E+01
  -2.250  0.3682E+00  0.1917E+01
  -2.240  0.3581E+00  0.1920E+01
  -2.230  0.3480E+00  0.1924E+01
  -2.220  0.3380E+00  0.1927E+01
  -2.210  0.3281E+00  0.1931E+01
  -2.200  0.3184E+00  0.1934E+01
  -2.190  0.3087E+00  0.1937E+01
  -2.180  0.2991E+00  0.1940E+01
  -2.170  0.2897E+00  0.1943E+01
  -2.160  0.2804E+00  0.1946E+01
  -2.150  0.2713E+00  0.1949E+01
  -2.140  0.2623E+00  0.1951E+01
  -2.130  0.2534E+00  0.1954E+01
  -2.120  0.2447E+00  0.1956E+01
  -2.110  0.2361E+00  0.1959E+01
  -2.100  0.2276E+00  0.1961E+01
  -2.090  0.2193E+00  0.1963E+01
  -2.080  0.2111E+00  0.1966E+01
  -2.070  0.2031E+00  0.1968E+01
  -2.060  0.1951E+00  0.1970E+01
  -2.050  0.1874E+00  0.1972E+01
  -2.040  0.1797E+00  0.1973E+01
  -2.030  0.1722E+00  0.1975E+01
  -2.020  0.1649E+00  0.1977E+01
  -2.010  0.1577E+00  0.1978E+01
  -2.000  0.1506E+00  0.1980E+01
  -1.990  0.1436E+00  0.1981E+01
  -1.980  0.1368E+00  0.1983E+01
  -1.970  0.1302E+00  0.1984E+01
  -1.960  0.1236E+00  0.1985E+01
  -1.950  0.1172E+00  0.1987E+01
  -1.940  0.1110E+00  0.1988E+01
  -1.930  0.1049E+00  0.1989E+01
  -1.920  0.9888E-01  0.1990E+01
  -1.910  0.9303E-01  0.1991E+01
  -1.900  0.8733E-01  0.1992E+01
  -1.890  0.8176E-01  0.1993E+01
  -1.880  0.7633E-01  0.1993E+01
  -1.870  0.7103E-01  0.1994E+01
  -1.860  0.6588E-01  0.1995E+01
  -1.850  0.6086E-01  0.1995E+01
  -1.840  0.5598E-01  0.1996E+01
  -1.830  0.5123E-01  0.1997E+01
  -1.820  0.4663E-01  0.1997E+01
  -1.810  0.4216E-01  0.1998E+01
  -1.800  0.3783E-01  0.1998E+01
  -1.790  0.3364E-01  0.1998E+01
  -1.780  0.2959E-01  0.1999E+01
  -1.770  0.2569E-01  0.1999E+01
  -1.760  0.2212E-01  0.1999E+01
  -1.750  0.1890E-01  0.1999E+01
  -1.740  0.1604E-01  0.1999E+01
  -1.730  0.1354E-01  0.2000E+01
  -1.720  0.1140E-01  0.2000E+01
  -1.710  0.9612E-02  0.2000E+01
  -1.700  0.8450E-02  0.2000E+01
  -1.690  0.9064E-02  0.2000E+01
  -1.680  0.1004E-01  0.2000E+01
  -1.670  0.1139E-01  0.2000E+01
  -1.660  0.1310E-01  0.2000E+01
  -1.650  0.1518E-01  0.2001E+01
  -1.640  0.1762E-01  0.2001E+01
  -1.630  0.2043E-01  0.2001E+01
  -1.620  0.2359E-01  0.2001E+01
  -1.610  0.2699E-01  0.2001E+01
  -1.600  0.3055E-01  0.2002E+01
  -1.590  0.3426E-01  0.2002E+01
  -1.580  0.3813E-01  0.2002E+01
  -1.570  0.4216E-01  0.2003E+01
  -1.560  0.4634E-01  0.2003E+01
  -1.550  0.5069E-01  0.2004E+01
  -1.540  0.5519E-01  0.2004E+01
  -1.530  0.5985E-01  0.2005E+01
  -1.520  0.6467E-01  0.2005E+01
  -1.510  0.6965E-01  0.2006E+01
  -1.500  0.7478E-01  0.2007E+01
  -1.490  0.8008E-01  0.2008E+01
  -1.480  0.8553E-01  0.2008E+01
  -1.470  0.9114E-01  0.2009E+01
  -1.460  0.9690E-01  0.2010E+01
  -1.450  0.1028E+00  0.2011E+01
  -1.440  0.1089E+00  0.2012E+01
  -1.430  0.1152E+00  0.2013E+01
  -1.420  0.1216E+00  0.2015E+01
  -1.410  0.1281E+00  0.2016E+01
  -1.400  0.1348E+00  0.2017E+01
  -1.390  0.1417E+00  0.2018E+01
  -1.380  0.1487E+00  0.2020E+01
  -1.370  0.1559E+00  0.2021E+01
  -1.360  0.1633E+00  0.2023E+01
  -1.350  0.1708E+00  0.2025E+01
  -1.340  0.1784E+00  0.2026E+01
  -1.330  0.1863E+00  0.2028E+01
  -1.320  0.1942E+00  0.2030E+01
  -1.310  0.2024E+00  0.2032E+01
  -1.300  0.2107E+00  0.2034E+01
  -1.290  0.2191E+00  0.2036E+01
  -1.280  0.2277E+00  0.2039E+01
  -1.270  0.2365E+00  0.2041E+01
  -1.260  0.2454E+00  0.2043E+01
  -1.250  0.2545E+00  0.2046E+01
  -1.240  0.2638E+00  0.2048E+01
  -1.230  0.2732E+00  0.2051E+01
  -1.220  0.2827E+00  0.2054E+01
  -1.210  0.2924E+00  0.2057E+01
  -1.200  0.3023E+00  0.2060E+01
  -1.190  0.3124E+00  0.2063E+01
  -1.180  0.3227E+00  0.2066E+01
  -1.170  0.3332E+00  0.2069E+01
  -1.160  0.3440E+00  0.2073E+01
  -1.150  0.3551E+00  0.2076E+01
  -1.140  0.3664E+00  0.2080E+01
  -1.130  0.3779E+00  0.2083E+01
  -1.120  0.3898E+00  0.2087E+01
  -1.110  0.4019E+00  0.2091E+01
  -1.100  0.4142E+00  0.2095E+01
  -1.090  0.4268E+00  0.2100E+01
  -1.080  0.4397E+00  0.2104E+01
  -1.070  0.4528E+00  0.2108E+01
  -1.060  0.4662E+00  0.2113E+01
  -1.050  0.4798E+00  0.2118E+01
  -1.040  0.4937E+00  0.2123E+01
  -1.030  0.5078E+00  0.2128E+01
  -1.020  0.5222E+00  0.2133E+01
  -1.010  0.5369E+00  0.2138E+01
  -1.000  0.5518E+00  0.2143E+01
  -0.990  0.5670E+00  0.2149E+01
  -0.980  0.5824E+00  0.2155E+01
  -0.970  0.5981E+00  0.2161E+01
  -0.960  0.6141E+00  0.2167E+01
  -0.950  0.6303E+00  0.2173E+01
  -0.940  0.6468E+00  0.2179E+01
  -0.930  0.6635E+00  0.2186E+01
  -0.920  0.6805E+00  0.2193E+01
  -0.910  0.6977E+00  0.2200E+01
  -0.900  0.7111E+00  0.2207E+01
  -0.890  0.7241E+00  0.2214E+01
  -0.880  0.7385E+00  0.2221E+01
  -0.870  0.7547E+00  0.2229E+01
  -0.860  0.7727E+00  0.2236E+01
  -0.850  0.7924E+00  0.2244E+01
  -0.840  0.8139E+00  0.2252E+01
  -0.830  0.8373E+00  0.2260E+01
  -0.820  0.8623E+00  0.2269E+01
  -0.810  0.8891E+00  0.2278E+01
  -0.800  0.9175E+00  0.2287E+01
  -0.790  0.9483E+00  0.2296E+01
  -0.780  0.9815E+00  0.2306E+01
  -0.770  0.1017E+01  0.2316E+01
  -0.760  0.1055E+01  0.2326E+01
  -0.750  0.1096E+01  0.2337E+01
  -0.740  0.1139E+01  0.2348E+01
  -0.730  0.1216E+01  0.2360E+01
  -0.720  0.1291E+01  0.2372E+01
  -0.710  0.1332E+01  0.2385E+01
  -0.700  0.1337E+01  0.2399E+01
  -0.690  0.1307E+01  0.2412E+01
  -0.680  0.1278E+01  0.2425E+01
  -0.670  0.1290E+01  0.2438E+01
  -0.660  0.1301E+01  0.2450E+01
  -0.650  0.1311E+01  0.2464E+01
  -0.640  0.1320E+01  0.2477E+01
  -0.630  0.1329E+01  0.2490E+01
  -0.620  0.1337E+01  0.2503E+01
  -0.610  0.1344E+01  0.2517E+01
  -0.600  0.1359E+01  0.2530E+01
  -0.590  0.1376E+01  0.2544E+01
  -0.580  0.1378E+01  0.2558E+01
  -0.570  0.1365E+01  0.2571E+01
  -0.560  0.1338E+01  0.2585E+01
  -0.550  0.1301E+01  0.2598E+01
  -0.540  0.1283E+01  0.2611E+01
  -0.530  0.1266E+01  0.2624E+01
  -0.520  0.1249E+01  0.2636E+01
  -0.510  0.1232E+01  0.2649E+01
  -0.500  0.1214E+01  0.2661E+01
  -0.490  0.1198E+01  0.2673E+01
  -0.480  0.1181E+01  0.2685E+01
  -0.470  0.1164E+01  0.2697E+01
  -0.460  0.1148E+01  0.2708E+01
  -0.450  0.1131E+01  0.2720E+01
  -0.440  0.1115E+01  0.2731E+01
  -0.430  0.1099E+01  0.2742E+01
  -0.420  0.1083E+01  0.2753E+01
  -0.410  0.1067E+01  0.2764E+01
  -0.400  0.1052E+01  0.2774E+01
  -0.390  0.1036E+01  0.2785E+01
  -0.380  0.1021E+01  0.2795E+01
  -0.370  0.1006E+01  0.2805E+01
  -0.360  0.9907E+00  0.2815E+01
  -0.350  0.9758E+00  0.2825E+01
  -0.340  0.9612E+00  0.2835E+01
  -0.330  0.9469E+00  0.2844E+01
  -0.320  0.9339E+00  0.2853E+01
  -0.310  0.9221E+00  0.2863E+01
  -0.300  0.9103E+00  0.2872E+01
  -0.290  0.8988E+00  0.2881E+01
  -0.280  0.8874E+00  0.2890E+01
  -0.270  0.8761E+00  0.2899E+01
  -0.260  0.8650E+00  0.2907E+01
  -0.250  0.8540E+00  0.2916E+01
  -0.240  0.8432E+00  0.2924E+01
  -0.230  0.8325E+00  0.2933E+01
  -0.220  0.8220E+00  0.2941E+01
  -0.210  0.8116E+00  0.2949E+01
  -0.200  0.8013E+00  0.2957E+01
  -0.190  0.7912E+00  0.2965E+01
  -0.180  0.7813E+00  0.2973E+01
  -0.170  0.7715E+00  0.2981E+01
  -0.160  0.7618E+00  0.2989E+01
  -0.150  0.7523E+00  0.2996E+01
  -0.140  0.7430E+00  0.3004E+01
  -0.130  0.7338E+00  0.3011E+01
  -0.120  0.7247E+00  0.3018E+01
  -0.110  0.7158E+00  0.3026E+01
  -0.100  0.7070E+00  0.3033E+01
  -0.090  0.6984E+00  0.3040E+01
  -0.080  0.6899E+00  0.3047E+01
  -0.070  0.6815E+00  0.3053E+01
  -0.060  0.6733E+00  0.3060E+01
  -0.050  0.6653E+00  0.3067E+01
  -0.040  0.6574E+00  0.3074E+01
  -0.030  0.6496E+00  0.3080E+01
  -0.020  0.6420E+00  0.3087E+01
  -0.010  0.6346E+00  0.3093E+01
  -0.000  0.6273E+00  0.3099E+01
   0.010  0.6201E+00  0.3105E+01
   0.020  0.6131E+00  0.3112E+01
   0.030  0.6062E+00  0.3118E+01
   0.040  0.5994E+00  0.3124E+01
   0.050  0.5928E+00  0.3130E+01
   0.060  0.5864E+00  0.3136E+01
   0.070  0.5802E+00  0.3141E+01
   0.080  0.5743E+00  0.3147E+01
   0.090  0.5687E+00  0.3153E+01
   0.100  0.5633E+00  0.3159E+01
   0.110  0.5581E+00  0.3164E+01
   0.120  0.5532E+00  0.3170E+01
   0.130  0.5485E+00  0.3175E+01
   0.140  0.5440E+00  0.3181E+01
   0.150  0.5397E+00  0.3186E+01
   0.160  0.5357E+00  0.3192E+01
   0.170  0.5319E+00  0.3197E+01
   0.180  0.5284E+00  0.3202E+01
   0.190  0.5250E+00  0.3207E+01
   0.200  0.5216E+00  0.3213E+01
   0.210  0.5182E+00  0.3218E+01
   0.220  0.5148E+00  0.3223E+01
   0.230  0.5115E+00  0.3228E+01
   0.240  0.5081E+00  0.3233E+01
   0.250  0.5047E+00  0.3238E+01
   0.260  0.5013E+00  0.3243E+01
   0.270  0.4980E+00  0.3248E+01
   0.280  0.4946E+00  0.3253E+01
   0.290  0.4913E+00  0.3258E+01
   0.300  0.4879E+00  0.3263E+01
   0.310  0.4846E+00  0.3268E+01
   0.320  0.4813E+00  0.3273E+01
   0.330  0.4780E+00  0.3278E+01
   0.340  0.4747E+00  0.3282E+01
   0.350  0.4714E+00  0.3287E+01
   0.360  0.4681E+00  0.3292E+01
   0.370  0.4648E+00  0.3296E+01
   0.380  0.4615E+00  0.3301E+01
   0.390  0.4583E+00  0.3306E+01
   0.400  0.4550E+00  0.3310E+01
   0.410  0.4518E+00  0.3315E+01
   0.420  0.4485E+00  0.3319E+01
   0.430  0.4453E+00  0.3324E+01
   0.440  0.4421E+00  0.3328E+01
   0.450  0.4389E+00  0.3333E+01
   0.460  0.4357E+00  0.3337E+01
   0.470  0.4325E+00  0.3341E+01
   0.480  0.4293E+00  0.3346E+01
   0.490  0.4261E+00  0.3350E+01
   0.500  0.4229E+00  0.3354E+01
   0.510  0.4197E+00  0.3358E+01
   0.520  0.4166E+00  0.3363E+01
   0.530  0.4134E+00  0.3367E+01
   0.540  0.4103E+00  0.3371E+01
   0.550  0.4073E+00  0.3375E+01
   0.560  0.4042E+00  0.3379E+01
   0.570  0.4012E+00  0.3383E+01
   0.580  0.3983E+00  0.3387E+01
   0.590  0.3954E+00  0.3391E+01
   0.600  0.3925E+00  0.3395E+01
   0.610  0.3897E+00  0.3399E+01
   0.620  0.3869E+00  0.3403E+01
   0.630  0.3841E+00  0.3407E+01
   0.640  0.3814E+00  0.3410E+01
   0.650  0.3787E+00  0.3414E+01
   0.660  0.3761E+00  0.3418E+01
   0.670  0.3735E+00  0.3422E+01
   0.680  0.3709E+00  0.3425E+01
   0.690  0.3684E+00  0.3429E+01
   0.700  0.3659E+00  0.3433E+01
   0.710  0.3634E+00  0.3436E+01
   0.720  0.3610E+00  0.3440E+01
   0.730  0.3587E+00  0.3444E+01
   0.740  0.3563E+00  0.3447E+01
   0.750  0.3540E+00  0.3451E+01
   0.760  0.3517E+00  0.3454E+01
   0.770  0.3495E+00  0.3458E+01
   0.780  0.3473E+00  0.3461E+01
   0.790  0.3450E+00  0.3465E+01
   0.800  0.3428E+00  0.3468E+01
   0.810  0.3407E+00  0.3472E+01
   0.820  0.3385E+00  0.3475E+01
   0.830  0.3364E+00  0.3478E+01
   0.840  0.3343E+00  0.3482E+01
   0.850  0.3322E+00  0.3485E+01
   0.860  0.3301E+00  0.3488E+01
   0.870  0.3281E+00  0.3492E+01
   0.880  0.3261E+00  0.3495E+01
   0.890  0.3241E+00  0.3498E+01
   0.900  0.3221E+00  0.3501E+01
   0.910  0.3202E+00  0.3505E+01
   0.920  0.3182E+00  0.3508E+01
   0.930  0.3163E+00  0.3511E+01
   0.940  0.3144E+00  0.3514E+01
   0.950  0.3126E+00  0.3517E+01
   0.960  0.3107E+00  0.3520E+01
   0.970  0.3089E+00  0.3524E+01
   0.980  0.3071E+00  0.3527E+01
   0.990  0.3053E+00  0.3530E+01
   1.000  0.3036E+00  0.3533E+01
   1.010  0.3019E+00  0.3536E+01
   1.020  0.3001E+00  0.3539E+01
   1.030  0.2985E+00  0.3542E+01
   1.040  0.2968E+00  0.3545E+01
   1.050  0.2952E+00  0.3548E+01
   1.060  0.2938E+00  0.3551E+01
   1.070  0.2923E+00  0.3554E+01
   1.080  0.2908E+00  0.3556E+01
   1.090  0.2894E+00  0.3559E+01
   1.100  0.2879E+00  0.3562E+01
   1.110  0.2865E+00  0.3565E+01
   1.120  0.2850E+00  0.3568E+01
   1.130  0.2836E+00  0.3571E+01
   1.140  0.2821E+00  0.3574E+01
   1.150  0.2807E+00  0.3576E+01
   1.160  0.2792E+00  0.3579E+01
   1.170  0.2778E+00  0.3582E+01
   1.180  0.2764E+00  0.3585E+01
   1.190  0.2749E+00  0.3588E+01
   1.200  0.2735E+00  0.3590E+01
   1.210  0.2721E+00  0.3593E+01
   1.220  0.2707E+00  0.3596E+01
   1.230  0.2692E+00  0.3598E+01
   1.240  0.2678E+00  0.3601E+01
   1.250  0.2664E+00  0.3604E+01
   1.260  0.2650E+00  0.3606E+01
   1.270  0.2636E+00  0.3609E+01
   1.280  0.2622E+00  0.3612E+01
   1.290  0.2608E+00  0.3614E+01
   1.300  0.2594E+00  0.3617E+01
   1.310  0.2580E+00  0.3620E+01
   1.320  0.2566E+00  0.3622E+01
   1.330  0.2552E+00  0.3625E+01
   1.340  0.2538E+00  0.3627E+01
   1.350  0.2525E+00  0.3630E+01
   1.360  0.2511E+00  0.3632E+01
   1.370  0.2497E+00  0.3635E+01
   1.380  0.2483E+00  0.3637E+01
   1.390  0.2474E+00  0.3640E+01
   1.400  0.2466E+00  0.3642E+01
   1.410  0.2457E+00  0.3645E+01
   1.420  0.2448E+00  0.3647E+01
   1.430  0.2439E+00  0.3650E+01
   1.440  0.2430E+00  0.3652E+01
   1.450  0.2421E+00  0.3654E+01
   1.460  0.2411E+00  0.3657E+01
   1.470  0.2401E+00  0.3659E+01
   1.480  0.2391E+00  0.3662E+01
   1.490  0.2380E+00  0.3664E+01
   1.500  0.2370E+00  0.3666E+01
   1.510  0.2359E+00  0.3669E+01
   1.520  0.2348E+00  0.3671E+01
   1.530  0.2337E+00  0.3673E+01
   1.540  0.2325E+00  0.3676E+01
   1.550  0.2314E+00  0.3678E+01
   1.560  0.2302E+00  0.3680E+01
   1.570  0.2290E+00  0.3683E+01
   1.580  0.2277E+00  0.3685E+01
   1.590  0.2265E+00  0.3687E+01
   1.600  0.2252E+00  0.3690E+01
   1.610  0.2239E+00  0.3692E+01
   1.620  0.2226E+00  0.3694E+01
   1.630  0.2212E+00  0.3696E+01
   1.640  0.2199E+00  0.3698E+01
   1.650  0.2185E+00  0.3701E+01
   1.660  0.2171E+00  0.3703E+01
   1.670  0.2156E+00  0.3705E+01
   1.680  0.2142E+00  0.3707E+01
   1.690  0.2127E+00  0.3709E+01
   1.700  0.2114E+00  0.3711E+01
   1.710  0.2100E+00  0.3713E+01
   1.720  0.2087E+00  0.3716E+01
   1.730  0.2074E+00  0.3718E+01
   1.740  0.2061E+00  0.3720E+01
   1.750  0.2048E+00  0.3722E+01
   1.760  0.2035E+00  0.3724E+01
   1.770  0.2022E+00  0.3726E+01
   1.780  0.2017E+00  0.3728E+01
   1.790  0.2042E+00  0.3730E+01
   1.800  0.2099E+00  0.3732E+01
   1.810  0.2189E+00  0.3734E+01
   1.820  0.2310E+00  0.3736E+01
   1.830  0.2465E+00  0.3739E+01
   1.840  0.2651E+00  0.3741E+01
   1.850  0.3200E+00  0.3744E+01
   1.860  0.3847E+00  0.3748E+01
   1.870  0.4478E+00  0.3752E+01
   1.880  0.5093E+00  0.3757E+01
   1.890  0.5693E+00  0.3762E+01
   1.900  0.6276E+00  0.3768E+01
   1.910  0.6844E+00  0.3775E+01
   1.920  0.7395E+00  0.3782E+01
   1.930  0.7931E+00  0.3789E+01
   1.940  0.8451E+00  0.3798E+01
   1.950  0.8955E+00  0.3806E+01
   1.960  0.9442E+00  0.3815E+01
   1.970  0.9914E+00  0.3825E+01
   1.980  0.1037E+01  0.3835E+01
   1.990  0.1081E+01  0.3846E+01
   2.000  0.1123E+01  0.3857E+01
   2.010  0.1152E+01  0.3868E+01
   2.020  0.1169E+01  0.3880E+01
   2.030  0.1183E+01  0.3892E+01
   2.040  0.1192E+01  0.3904E+01
   2.050  0.1197E+01  0.3916E+01
   2.060  0.1198E+01  0.3927E+01
   2.070  0.1195E+01  0.3939E+01
   2.080  0.1192E+01  0.3951E+01
   2.090  0.1190E+01  0.3963E+01
   2.100  0.1187E+01  0.3975E+01
   2.110  0.1185E+01  0.3987E+01
   2.120  0.1183E+01  0.3999E+01
   2.130  0.1182E+01  0.4011E+01
   2.140  0.1181E+01  0.4023E+01
   2.150  0.1180E+01  0.4034E+01
   2.160  0.1179E+01  0.4046E+01
   2.170  0.1178E+01  0.4058E+01
   2.180  0.1178E+01  0.4070E+01
   2.190  0.1178E+01  0.4081E+01
   2.200  0.1178E+01  0.4093E+01
   2.210  0.1178E+01  0.4105E+01
   2.220  0.1178E+01  0.4117E+01
   2.230  0.1179E+01  0.4129E+01
   2.240  0.1180E+01  0.4140E+01
   2.250  0.1180E+01  0.4152E+01
   2.260  0.1181E+01  0.4164E+01
   2.270  0.1182E+01  0.4176E+01
   2.280  0.1183E+01  0.4188E+01
   2.290  0.1184E+01  0.4199E+01
   2.300  0.1185E+01  0.4211E+01
   2.310  0.1186E+01  0.4223E+01
   2.320  0.1186E+01  0.4235E+01
   2.330  0.1187E+01  0.4247E+01
   2.340  0.1188E+01  0.4259E+01
   2.350  0.1189E+01  0.4271E+01
   2.360  0.1190E+01  0.4283E+01
   2.370  0.1190E+01  0.4294E+01
   2.380  0.1191E+01  0.4306E+01
   2.390  0.1191E+01  0.4318E+01
   2.400  0.1192E+01  0.4330E+01
   2.410  0.1192E+01  0.4342E+01
   2.420  0.1192E+01  0.4354E+01
   2.430  0.1192E+01  0.4366E+01
   2.440  0.1192E+01  0.4378E+01
   2.450  0.1192E+01  0.4390E+01
   2.460  0.1192E+01  0.4402E+01
   2.470  0.1192E+01  0.4414E+01
   2.480  0.1192E+01  0.4426E+01
   2.490  0.1192E+01  0.4437E+01
   2.500  0.1192E+01  0.4449E+01
   2.510  0.1192E+01  0.4461E+01
   2.520  0.1195E+01  0.4473E+01
   2.530  0.1200E+01  0.4485E+01
   2.540  0.1209E+01  0.4497E+01
   2.550  0.1221E+01  0.4509E+01
   2.560  0.1235E+01  0.4522E+01
   2.570  0.1253E+01  0.4534E+01
   2.580  0.1273E+01  0.4547E+01
   2.590  0.1293E+01  0.4560E+01
   2.600  0.1315E+01  0.4573E+01
   2.610  0.1339E+01  0.4586E+01
   2.620  0.1811E+01  0.4602E+01
   2.630  0.1406E+01  0.4619E+01
   2.640  0.1406E+01  0.4633E+01
   2.650  0.1394E+01  0.4647E+01
   2.660  0.1371E+01  0.4661E+01
   2.670  0.1335E+01  0.4674E+01
   2.680  0.1288E+01  0.4687E+01
   2.690  0.1202E+01  0.4700E+01
   2.700  0.1125E+01  0.4712E+01
   2.710  0.1056E+01  0.4722E+01
   2.720  0.1055E+01  0.4733E+01
   2.730  0.1056E+01  0.4744E+01
   2.740  0.1057E+01  0.4754E+01
   2.750  0.1059E+01  0.4765E+01
   2.760  0.1061E+01  0.4775E+01
   2.770  0.1062E+01  0.4786E+01
   2.780  0.1065E+01  0.4797E+01
   2.790  0.1067E+01  0.4807E+01
   2.800  0.1070E+01  0.4818E+01
   2.810  0.1073E+01  0.4829E+01
   2.820  0.1077E+01  0.4839E+01
   2.830  0.1080E+01  0.4850E+01
   2.840  0.1085E+01  0.4861E+01
   2.850  0.1089E+01  0.4872E+01
   2.860  0.1094E+01  0.4883E+01
   2.870  0.1099E+01  0.4894E+01
   2.880  0.1104E+01  0.4905E+01
   2.890  0.1110E+01  0.4916E+01
   2.900  0.1116E+01  0.4927E+01
   2.910  0.1123E+01  0.4938E+01
   2.920  0.1130E+01  0.4949E+01
   2.930  0.1137E+01  0.4961E+01
   2.940  0.1144E+01  0.4972E+01
   2.950  0.1152E+01  0.4984E+01
   2.960  0.1160E+01  0.4995E+01
   2.970  0.1168E+01  0.5007E+01
   2.980  0.1177E+01  0.5019E+01
   2.990  0.1186E+01  0.5030E+01
   3.000  0.1196E+01  0.5042E+01
   3.010  0.1205E+01  0.5054E+01
   3.020  0.1215E+01  0.5066E+01
   3.030  0.1226E+01  0.5079E+01
   3.040  0.1236E+01  0.5091E+01
   3.050  0.1247E+01  0.5103E+01
   3.060  0.1259E+01  0.5116E+01
   3.070  0.1270E+01  0.5128E+01
   3.080  0.1284E+01  0.5141E+01
   3.090  0.1299E+01  0.5154E+01
   3.100  0.1315E+01  0.5167E+01
   3.110  0.1332E+01  0.5180E+01
   3.120  0.1350E+01  0.5194E+01
   3.130  0.1369E+01  0.5207E+01
   3.140  0.1389E+01  0.5221E+01
   3.150  0.1410E+01  0.5235E+01
   3.160  0.1431E+01  0.5249E+01
   3.170  0.1453E+01  0.5264E+01
   3.180  0.1477E+01  0.5278E+01
   3.190  0.1502E+01  0.5293E+01
   3.200  0.1529E+01  0.5309E+01
   3.210  0.1558E+01  0.5324E+01
   3.220  0.1588E+01  0.5340E+01
   3.230  0.1620E+01  0.5356E+01
   3.240  0.1654E+01  0.5372E+01
   3.250  0.1689E+01  0.5389E+01
   3.260  0.1726E+01  0.5406E+01
   3.270  0.1766E+01  0.5423E+01
   3.280  0.1830E+01  0.5441E+01
   3.290  0.1874E+01  0.5460E+01
   3.300  0.1898E+01  0.5479E+01
   3.310  0.1902E+01  0.5498E+01
   3.320  0.1960E+01  0.5517E+01
   3.330  0.1998E+01  0.5537E+01
   3.340  0.1982E+01  0.5557E+01
   3.350  0.1933E+01  0.5576E+01
   3.360  0.1841E+01  0.5595E+01
   3.370  0.1764E+01  0.5613E+01
   3.380  0.1701E+01  0.5631E+01
   3.390  0.1654E+01  0.5647E+01
   3.400  0.1621E+01  0.5664E+01
   3.410  0.1603E+01  0.5680E+01
   3.420  0.1594E+01  0.5696E+01
   3.430  0.1586E+01  0.5712E+01
   3.440  0.1578E+01  0.5728E+01
   3.450  0.1572E+01  0.5743E+01
   3.460  0.1566E+01  0.5759E+01
   3.470  0.1560E+01  0.5775E+01
   3.480  0.1555E+01  0.5790E+01
   3.490  0.1550E+01  0.5806E+01
   3.500  0.1546E+01  0.5821E+01
   3.510  0.1542E+01  0.5837E+01
   3.520  0.1538E+01  0.5852E+01
   3.530  0.1535E+01  0.5867E+01
   3.540  0.1532E+01  0.5883E+01
   3.550  0.1551E+01  0.5898E+01
   3.560  0.1570E+01  0.5914E+01
   3.570  0.1586E+01  0.5930E+01
   3.580  0.1600E+01  0.5945E+01
   3.590  0.1611E+01  0.5962E+01
   3.600  0.1619E+01  0.5978E+01
   3.610  0.1624E+01  0.5994E+01
   3.620  0.1626E+01  0.6010E+01
   3.630  0.1625E+01  0.6026E+01
   3.640  0.1620E+01  0.6043E+01
   3.650  0.1613E+01  0.6059E+01
   3.660  0.1602E+01  0.6075E+01
   3.670  0.1589E+01  0.6091E+01
   3.680  0.1572E+01  0.6107E+01
   3.690  0.1552E+01  0.6122E+01
   3.700  0.1529E+01  0.6138E+01
   3.710  0.1506E+01  0.6153E+01
   3.720  0.1492E+01  0.6168E+01
   3.730  0.1487E+01  0.6183E+01
   3.740  0.1483E+01  0.6198E+01
   3.750  0.1478E+01  0.6212E+01
   3.760  0.1474E+01  0.6227E+01
   3.770  0.1469E+01  0.6242E+01
   3.780  0.1465E+01  0.6256E+01
   3.790  0.1460E+01  0.6271E+01
   3.800  0.1455E+01  0.6286E+01
   3.810  0.1443E+01  0.6300E+01
   3.820  0.1441E+01  0.6315E+01
   3.830  0.1440E+01  0.6329E+01
   3.840  0.1439E+01  0.6343E+01
   3.850  0.1438E+01  0.6358E+01
   3.860  0.1444E+01  0.6372E+01
   3.870  0.1451E+01  0.6387E+01
   3.880  0.1458E+01  0.6401E+01
   3.890  0.1463E+01  0.6416E+01
   3.900  0.1468E+01  0.6430E+01
   3.910  0.1473E+01  0.6445E+01
   3.920  0.1476E+01  0.6460E+01
   3.930  0.1479E+01  0.6475E+01
   3.940  0.1482E+01  0.6489E+01
   3.950  0.1483E+01  0.6504E+01
   3.960  0.1484E+01  0.6519E+01
   3.970  0.1484E+01  0.6534E+01
   3.980  0.1483E+01  0.6549E+01
   3.990  0.1482E+01  0.6564E+01
   4.000  0.1480E+01  0.6578E+01
   4.010  0.1477E+01  0.6593E+01
   4.020  0.1474E+01  0.6608E+01
   4.030  0.1470E+01  0.6623E+01
   4.040  0.1465E+01  0.6637E+01
   4.050  0.1459E+01  0.6652E+01
   4.060  0.1453E+01  0.6667E+01
   4.070  0.1446E+01  0.6681E+01
   4.080  0.1438E+01  0.6695E+01
   4.090  0.1431E+01  0.6710E+01
   4.100  0.1425E+01  0.6724E+01
   4.110  0.1421E+01  0.6738E+01
   4.120  0.1418E+01  0.6752E+01
   4.130  0.1415E+01  0.6767E+01
   4.140  0.1411E+01  0.6781E+01
   4.150  0.1408E+01  0.6795E+01
   4.160  0.1405E+01  0.6809E+01
   4.170  0.1402E+01  0.6823E+01
   4.180  0.1399E+01  0.6837E+01
   4.190  0.1395E+01  0.6851E+01
   4.200  0.1392E+01  0.6865E+01
   4.210  0.1389E+01  0.6879E+01
   4.220  0.1385E+01  0.6893E+01
   4.230  0.1381E+01  0.6907E+01
   4.240  0.1378E+01  0.6920E+01
   4.250  0.1374E+01  0.6934E+01
   4.260  0.1370E+01  0.6948E+01
   4.270  0.1366E+01  0.6961E+01
   4.280  0.1362E+01  0.6975E+01
   4.290  0.1358E+01  0.6989E+01
   4.300  0.1354E+01  0.7002E+01
   4.310  0.1349E+01  0.7016E+01
   4.320  0.1345E+01  0.7029E+01
   4.330  0.1341E+01  0.7043E+01
   4.340  0.1336E+01  0.7056E+01
   4.350  0.1331E+01  0.7069E+01
   4.360  0.1327E+01  0.7083E+01
   4.370  0.1324E+01  0.7096E+01
   4.380  0.1327E+01  0.7109E+01
   4.390  0.1330E+01  0.7122E+01
   4.400  0.1331E+01  0.7136E+01
   4.410  0.1340E+01  0.7149E+01
   4.420  0.1374E+01  0.7163E+01
   4.430  0.1413E+01  0.7177E+01
   4.440  0.1414E+01  0.7191E+01
   4.450  0.1414E+01  0.7205E+01
   4.460  0.1413E+01  0.7219E+01
   4.470  0.1410E+01  0.7233E+01
   4.480  0.1406E+01  0.7247E+01
   4.490  0.1400E+01  0.7261E+01
   4.500  0.1393E+01  0.7275E+01
   4.510  0.1385E+01  0.7289E+01
   4.520  0.1375E+01  0.7303E+01
   4.530  0.1364E+01  0.7317E+01
   4.540  0.1351E+01  0.7330E+01
   4.550  0.1337E+01  0.7344E+01
   4.560  0.1322E+01  0.7357E+01
   4.570  0.1309E+01  0.7370E+01
   4.580  0.1295E+01  0.7383E+01
   4.590  0.1279E+01  0.7396E+01
   4.600  0.1262E+01  0.7409E+01
   4.610  0.1250E+01  0.7421E+01
   4.620  0.1236E+01  0.7434E+01
   4.630  0.1221E+01  0.7446E+01
   4.640  0.1204E+01  0.7458E+01
   4.650  0.1187E+01  0.7470E+01
   4.660  0.1168E+01  0.7482E+01
   4.670  0.1148E+01  0.7493E+01
   4.680  0.1131E+01  0.7505E+01
   4.690  0.1114E+01  0.7516E+01
   4.700  0.1096E+01  0.7527E+01
   4.710  0.1077E+01  0.7538E+01
   4.720  0.1057E+01  0.7549E+01
   4.730  0.1035E+01  0.7559E+01
   4.740  0.1012E+01  0.7569E+01
   4.750  0.9879E+00  0.7579E+01
   4.760  0.9640E+00  0.7589E+01
   4.770  0.9399E+00  0.7599E+01
   4.780  0.9155E+00  0.7608E+01
   4.790  0.8915E+00  0.7617E+01
   4.800  0.8686E+00  0.7626E+01
   4.810  0.8469E+00  0.7634E+01
   4.820  0.8264E+00  0.7643E+01
   4.830  0.8070E+00  0.7651E+01
   4.840  0.7889E+00  0.7659E+01
   4.850  0.7718E+00  0.7667E+01
   4.860  0.7560E+00  0.7674E+01
   4.870  0.7413E+00  0.7682E+01
   4.880  0.7277E+00  0.7689E+01
   4.890  0.7154E+00  0.7696E+01
   4.900  0.7038E+00  0.7703E+01
   4.910  0.6924E+00  0.7710E+01
   4.920  0.6811E+00  0.7717E+01
   4.930  0.6700E+00  0.7724E+01
   4.940  0.6590E+00  0.7731E+01
   4.950  0.6481E+00  0.7737E+01
   4.960  0.6374E+00  0.7744E+01
   4.970  0.6268E+00  0.7750E+01
   4.980  0.6163E+00  0.7756E+01
   4.990  0.6059E+00  0.7762E+01
   5.000  0.5957E+00  0.7768E+01
   5.010  0.5856E+00  0.7774E+01
   5.020  0.5757E+00  0.7780E+01
   5.030  0.5659E+00  0.7786E+01
   5.040  0.5562E+00  0.7791E+01
   5.050  0.5466E+00  0.7797E+01
   5.060  0.5372E+00  0.7802E+01
   5.070  0.5279E+00  0.7807E+01
   5.080  0.5188E+00  0.7813E+01
   5.090  0.5097E+00  0.7818E+01
   5.100  0.5008E+00  0.7823E+01
   5.110  0.4921E+00  0.7828E+01
   5.120  0.4835E+00  0.7833E+01
   5.130  0.4750E+00  0.7838E+01
   5.140  0.4666E+00  0.7842E+01
   5.150  0.4584E+00  0.7847E+01
   5.160  0.4503E+00  0.7851E+01
   5.170  0.4423E+00  0.7856E+01
   5.180  0.4343E+00  0.7860E+01
   5.190  0.4264E+00  0.7865E+01
   5.200  0.4101E+00  0.7869E+01
   5.210  0.3807E+00  0.7873E+01
   5.220  0.3730E+00  0.7876E+01
   5.230  0.3677E+00  0.7880E+01
   5.240  0.3623E+00  0.7884E+01
   5.250  0.3569E+00  0.7887E+01
   5.260  0.3515E+00  0.7891E+01
   5.270  0.3461E+00  0.7894E+01
   5.280  0.3407E+00  0.7898E+01
   5.290  0.3352E+00  0.7901E+01
   5.300  0.3298E+00  0.7905E+01
   5.310  0.3242E+00  0.7908E+01
   5.320  0.3187E+00  0.7911E+01
   5.330  0.3132E+00  0.7914E+01
   5.340  0.3076E+00  0.7917E+01
   5.350  0.3020E+00  0.7920E+01
   5.360  0.2963E+00  0.7923E+01
   5.370  0.2907E+00  0.7926E+01
   5.380  0.2850E+00  0.7929E+01
   5.390  0.2793E+00  0.7932E+01
   5.400  0.2736E+00  0.7935E+01
   5.410  0.2678E+00  0.7937E+01
   5.420  0.2621E+00  0.7940E+01
   5.430  0.2563E+00  0.7943E+01
   5.440  0.2505E+00  0.7945E+01
   5.450  0.2446E+00  0.7948E+01
   5.460  0.2388E+00  0.7950E+01
   5.470  0.2329E+00  0.7953E+01
   5.480  0.2270E+00  0.7955E+01
   5.490  0.2210E+00  0.7957E+01
   5.500  0.2151E+00  0.7959E+01
   5.510  0.2091E+00  0.7961E+01
   5.520  0.2031E+00  0.7963E+01
   5.530  0.1970E+00  0.7965E+01
   5.540  0.1910E+00  0.7967E+01
   5.550  0.1849E+00  0.7969E+01
   5.560  0.1788E+00  0.7971E+01
   5.570  0.1727E+00  0.7973E+01
   5.580  0.1665E+00  0.7975E+01
   5.590  0.1604E+00  0.7976E+01
   5.600  0.1542E+00  0.7978E+01
   5.610  0.1480E+00  0.7979E+01
   5.620  0.1417E+00  0.7981E+01
   5.630  0.1354E+00  0.7982E+01
   5.640  0.1291E+00  0.7983E+01
   5.650  0.1228E+00  0.7985E+01
   5.660  0.1165E+00  0.7986E+01
   5.670  0.1955E+00  0.7987E+01
   5.680  0.1011E+00  0.7991E+01
   5.690  0.9404E-01  0.7992E+01
   5.700  0.8722E-01  0.7992E+01
   5.710  0.8066E-01  0.7993E+01
   5.720  0.7436E-01  0.7994E+01
   5.730  0.6831E-01  0.7995E+01
   5.740  0.6252E-01  0.7995E+01
   5.750  0.5698E-01  0.7996E+01
   5.760  0.5170E-01  0.7997E+01
   5.770  0.4668E-01  0.7997E+01
   5.780  0.4191E-01  0.7997E+01
   5.790  0.3740E-01  0.7998E+01
   5.800  0.3315E-01  0.7998E+01
   5.810  0.2916E-01  0.7999E+01
   5.820  0.2542E-01  0.7999E+01
   5.830  0.2193E-01  0.7999E+01
   5.840  0.1871E-01  0.7999E+01
   5.850  0.1574E-01  0.7999E+01
   5.860  0.1302E-01  0.8000E+01
   5.870  0.1057E-01  0.8000E+01
   5.880  0.8366E-02  0.8000E+01
   5.890  0.6422E-02  0.8000E+01
   5.900  0.4735E-02  0.8000E+01
   5.910  0.3305E-02  0.8000E+01
   5.920  0.2131E-02  0.8000E+01
   5.930  0.1213E-02  0.8000E+01
   5.940  0.5526E-03  0.8000E+01
   5.950  0.1484E-03  0.8000E+01
   5.960  0.7309E-06  0.8000E+01
   5.970  0.0000E+00  0.8000E+01
   5.980  0.0000E+00  0.8000E+01
   5.990  0.0000E+00  0.8000E+01
   6.000  0.0000E+00  0.8000E+01
   6.010  0.0000E+00  0.8000E+01
   6.020  0.0000E+00  0.8000E+01
   6.030  0.0000E+00  0.8000E+01
   6.040  0.0000E+00  0.8000E+01
   6.050  0.0000E+00  0.8000E+01
   6.060  0.0000E+00  0.8000E+01
   6.070  0.0000E+00  0.8000E+01
   6.080  0.0000E+00  0.8000E+01
   6.090  0.0000E+00  0.8000E+01
   6.100  0.0000E+00  0.8000E+01
   6.110  0.0000E+00  0.8000E+01
   6.120  0.0000E+00  0.8000E+01
   6.130  0.0000E+00  0.8000E+01
   6.140  0.0000E+00  0.8000E+01
   6.150  0.0000E+00  0.8000E+01
   6.160  0.0000E+00  0.8000E+01
   6.170  0.0000E+00  0.8000E+01
   6.180  0.0000E+00  0.8000E+01
   6.190  0.0000E+00  0.8000E+01
   6.200  0.0000E+00  0.8000E+01
   6.210  0.0000E+00  0.8000E+01
   6.220  0.0000E+00  0.8000E+01
   6.230  0.0000E+00  0.8000E+01
   6.240  0.0000E+00  0.8000E+01
   6.250  0.0000E+00  0.8000E+01
   6.260  0.0000E+00  0.8000E+01
   6.270  0.0000E+00  0.8000E+01
   6.280  0.0000E+00  0.8000E+01
   6.290  0.0000E+00  0.8000E+01
   6.300  0.0000E+00  0.8000E+01
   6.310  0.0000E+00  0.8000E+01
   6.320  0.0000E+00  0.8000E+01
   6.330  0.0000E+00  0.8000E+01
   6.340  0.0000E+00  0.8000E+01
   6.350  0.0000E+00  0.8000E+01
   6.360  0.0000E+00  0.8000E+01
   6.370  0.0000E+00  0.8000E+01
   6.380  0.0000E+00  0.8000E+01
   6.390  0.0000E+00  0.8000E+01
   6.400  0.0000E+00  0.8000E+01
   6.410  0.0000E+00  0.8000E+01
   6.420  0.0000E+00  0.8000E+01
   6.430  0.0000E+00  0.8000E+01
   6.440  0.0000E+00  0.8000E+01
   6.450  0.0000E+00  0.8000E+01
   6.460  0.0000E+00  0.8000E+01
   6.470  0.0000E+00  0.8000E+01
   6.480  0.0000E+00  0.8000E+01
   6.490  0.0000E+00  0.8000E+01
   6.500  0.0000E+00  0.8000E+01
   6.510  0.0000E+00  0.8000E+01
   6.520  0.0000E+00  0.8000E+01
   6.530  0.0000E+00  0.8000E+01
   6.540  0.0000E+00  0.8000E+01
   6.550  0.0000E+00  0.8000E+01
   6.560  0.0000E+00  0.8000E+01
   6.570  0.0000E+00  0.8000E+01
   6.580  0.0000E+00  0.8000E+01
   6.590  0.0000E+00  0.8000E+01
   6.600  0.0000E+00  0.8000E+01
   6.610  0.2287E-04  0.8000E+01
   6.620  0.4011E-03  0.8000E+01
   6.630  0.1244E-02  0.8000E+01
   6.640  0.2552E-02  0.8000E+01
   6.650  0.4325E-02  0.8000E+01
   6.660  0.6563E-02  0.8000E+01
   6.670  0.9265E-02  0.8000E+01
   6.680  0.1243E-01  0.8000E+01
   6.690  0.1606E-01  0.8000E+01
   6.700  0.2016E-01  0.8001E+01
   6.710  0.2472E-01  0.8001E+01
   6.720  0.2970E-01  0.8001E+01
   6.730  0.3505E-01  0.8001E+01
   6.740  0.4077E-01  0.8002E+01
   6.750  0.4687E-01  0.8002E+01
   6.760  0.5333E-01  0.8003E+01
   6.770  0.6016E-01  0.8003E+01
   6.780  0.6737E-01  0.8004E+01
   6.790  0.7495E-01  0.8005E+01
   6.800  0.8289E-01  0.8005E+01
   6.810  0.9121E-01  0.8006E+01
   6.820  0.9990E-01  0.8007E+01
   6.830  0.1090E+00  0.8008E+01
   6.840  0.1184E+00  0.8009E+01
   6.850  0.1282E+00  0.8011E+01
   6.860  0.1384E+00  0.8012E+01
   6.870  0.1489E+00  0.8013E+01
   6.880  0.1598E+00  0.8015E+01
   6.890  0.1691E+00  0.8017E+01
   6.900  0.1717E+00  0.8018E+01
   6.910  0.1744E+00  0.8020E+01
   6.920  0.1772E+00  0.8022E+01
   6.930  0.1800E+00  0.8024E+01
   6.940  0.1829E+00  0.8025E+01
   6.950  0.1859E+00  0.8027E+01
   6.960  0.1890E+00  0.8029E+01
   6.970  0.1921E+00  0.8031E+01
   6.980  0.1954E+00  0.8033E+01
   6.990  0.1987E+00  0.8035E+01
   7.000  0.2020E+00  0.8037E+01
   7.010  0.2055E+00  0.8039E+01
   7.020  0.2090E+00  0.8041E+01
   7.030  0.2126E+00  0.8043E+01
   7.040  0.2163E+00  0.8045E+01
   7.050  0.2201E+00  0.8048E+01
   7.060  0.2239E+00  0.8050E+01
   7.070  0.2278E+00  0.8052E+01
   7.080  0.2318E+00  0.8054E+01
   7.090  0.2358E+00  0.8057E+01
   7.100  0.2400E+00  0.8059E+01
   7.110  0.2442E+00  0.8061E+01
   7.120  0.2488E+00  0.8064E+01
   7.130  0.2536E+00  0.8066E+01
   7.140  0.2587E+00  0.8069E+01
   7.150  0.2641E+00  0.8072E+01
   7.160  0.2697E+00  0.8074E+01
   7.170  0.2757E+00  0.8077E+01
   7.180  0.2819E+00  0.8080E+01
   7.190  0.2884E+00  0.8083E+01
   7.200  0.2951E+00  0.8086E+01
   7.210  0.3020E+00  0.8089E+01
   7.220  0.3092E+00  0.8092E+01
   7.230  0.3166E+00  0.8095E+01
   7.240  0.3242E+00  0.8098E+01
   7.250  0.3321E+00  0.8101E+01
   7.260  0.3401E+00  0.8105E+01
   7.270  0.3484E+00  0.8108E+01
   7.280  0.3570E+00  0.8112E+01
   7.290  0.3657E+00  0.8115E+01
   7.300  0.3747E+00  0.8119E+01
   7.310  0.3838E+00  0.8123E+01
   7.320  0.3932E+00  0.8127E+01
   7.330  0.3999E+00  0.8131E+01
   7.340  0.4054E+00  0.8135E+01
   7.350  0.4111E+00  0.8139E+01
   7.360  0.4169E+00  0.8143E+01
   7.370  0.4228E+00  0.8147E+01
   7.380  0.4289E+00  0.8151E+01
   7.390  0.4351E+00  0.8156E+01
   7.400  0.4415E+00  0.8160E+01
   7.410  0.4482E+00  0.8164E+01
   7.420  0.4552E+00  0.8169E+01
   7.430  0.4625E+00  0.8173E+01
   7.440  0.4702E+00  0.8178E+01
   7.450  0.4781E+00  0.8183E+01
   7.460  0.4864E+00  0.8188E+01
   7.470  0.4950E+00  0.8193E+01
   7.480  0.5040E+00  0.8198E+01
   7.490  0.5132E+00  0.8203E+01
   7.500  0.5229E+00  0.8208E+01
   7.510  0.5331E+00  0.8213E+01
   7.520  0.5438E+00  0.8219E+01
   7.530  0.5551E+00  0.8224E+01
   7.540  0.5666E+00  0.8230E+01
   7.550  0.5786E+00  0.8235E+01
   7.560  0.5910E+00  0.8241E+01
   7.570  0.6038E+00  0.8247E+01
   7.580  0.6170E+00  0.8253E+01
   7.590  0.6307E+00  0.8260E+01
   7.600  0.6447E+00  0.8266E+01
   7.610  0.6592E+00  0.8272E+01
   7.620  0.6740E+00  0.8279E+01
   7.630  0.6893E+00  0.8286E+01
   7.640  0.7050E+00  0.8293E+01
   7.650  0.7211E+00  0.8300E+01
   7.660  0.7376E+00  0.8307E+01
   7.670  0.7545E+00  0.8315E+01
   7.680  0.7719E+00  0.8322E+01
   7.690  0.7896E+00  0.8330E+01
   7.700  0.8078E+00  0.8338E+01
   7.710  0.8264E+00  0.8346E+01
   7.720  0.8454E+00  0.8355E+01
   7.730  0.8648E+00  0.8363E+01
   7.740  0.8846E+00  0.8372E+01
   7.750  0.9048E+00  0.8381E+01
   7.760  0.9254E+00  0.8390E+01
   7.770  0.9465E+00  0.8399E+01
   7.780  0.9679E+00  0.8409E+01
   7.790  0.9898E+00  0.8419E+01
   7.800  0.1012E+01  0.8429E+01
   7.810  0.1035E+01  0.8439E+01
   7.820  0.1058E+01  0.8450E+01
   7.830  0.1081E+01  0.8460E+01
   7.840  0.1106E+01  0.8471E+01
   7.850  0.1130E+01  0.8482E+01
   7.860  0.1156E+01  0.8494E+01
   7.870  0.1181E+01  0.8505E+01
   7.880  0.1208E+01  0.8517E+01
   7.890  0.1235E+01  0.8530E+01
   7.900  0.1264E+01  0.8542E+01
   7.910  0.1297E+01  0.8555E+01
   7.920  0.1331E+01  0.8568E+01
   7.930  0.1369E+01  0.8582E+01
   7.940  0.1347E+01  0.8601E+01
   7.950  0.1385E+01  0.8614E+01
   7.960  0.1425E+01  0.8628E+01
   7.970  0.1473E+01  0.8643E+01
   7.980  0.1519E+01  0.8658E+01
   7.990  0.1564E+01  0.8673E+01
   8.000  0.1608E+01  0.8689E+01
   8.010  0.1651E+01  0.8705E+01
   8.020  0.1692E+01  0.8722E+01
   8.030  0.1732E+01  0.8739E+01
   8.040  0.1771E+01  0.8757E+01
   8.050  0.1808E+01  0.8775E+01
   8.060  0.1844E+01  0.8793E+01
   8.070  0.1879E+01  0.8811E+01
   8.080  0.1913E+01  0.8830E+01
   8.090  0.1945E+01  0.8850E+01
   8.100  0.1967E+01  0.8869E+01
   8.110  0.2022E+01  0.8889E+01
   8.120  0.2071E+01  0.8910E+01
   8.130  0.2114E+01  0.8931E+01
   8.140  0.2151E+01  0.8952E+01
   8.150  0.2181E+01  0.8974E+01
   8.160  0.2205E+01  0.8995E+01
   8.170  0.2222E+01  0.9018E+01
   8.180  0.2231E+01  0.9040E+01
   8.190  0.2235E+01  0.9062E+01
   8.200  0.2235E+01  0.9085E+01
   8.210  0.2230E+01  0.9107E+01
   8.220  0.2221E+01  0.9129E+01
   8.230  0.2208E+01  0.9151E+01
   8.240  0.2190E+01  0.9173E+01
   8.250  0.2185E+01  0.9195E+01
   8.260  0.2192E+01  0.9217E+01
   8.270  0.2198E+01  0.9239E+01
   8.280  0.2203E+01  0.9261E+01
   8.290  0.2206E+01  0.9283E+01
   8.300  0.2209E+01  0.9305E+01
   8.310  0.2210E+01  0.9327E+01
   8.320  0.2209E+01  0.9349E+01
   8.330  0.2207E+01  0.9371E+01
   8.340  0.2204E+01  0.9393E+01
   8.350  0.2198E+01  0.9415E+01
   8.360  0.2188E+01  0.9437E+01
   8.370  0.2178E+01  0.9459E+01
   8.380  0.2170E+01  0.9481E+01
   8.390  0.2159E+01  0.9503E+01
   8.400  0.2142E+01  0.9524E+01
   8.410  0.2123E+01  0.9545E+01
   8.420  0.2104E+01  0.9567E+01
   8.430  0.2082E+01  0.9588E+01
   8.440  0.2059E+01  0.9608E+01
   8.450  0.2035E+01  0.9629E+01
   8.460  0.2009E+01  0.9649E+01
   8.470  0.1981E+01  0.9669E+01
   8.480  0.1952E+01  0.9689E+01
   8.490  0.1922E+01  0.9708E+01
   8.500  0.1890E+01  0.9727E+01
   8.510  0.1857E+01  0.9746E+01
   8.520  0.1823E+01  0.9764E+01
   8.530  0.1788E+01  0.9782E+01
   8.540  0.1752E+01  0.9800E+01
   8.550  0.1716E+01  0.9817E+01
   8.560  0.1678E+01  0.9834E+01
   8.570  0.1639E+01  0.9851E+01
   8.580  0.1599E+01  0.9867E+01
   8.590  0.1565E+01  0.9883E+01
   8.600  0.1533E+01  0.9898E+01
   8.610  0.1500E+01  0.9913E+01
   8.620  0.1470E+01  0.9928E+01
   8.630  0.1439E+01  0.9943E+01
   8.640  0.1407E+01  0.9957E+01
   8.650  0.1376E+01  0.9971E+01
   8.660  0.1344E+01  0.9985E+01
   8.670  0.1312E+01  0.9998E+01
   8.680  0.1280E+01  0.1001E+02
   8.690  0.1248E+01  0.1002E+02
   8.700  0.1216E+01  0.1004E+02
   8.710  0.1183E+01  0.1005E+02
   8.720  0.1151E+01  0.1006E+02
   8.730  0.1118E+01  0.1007E+02
   8.740  0.1085E+01  0.1008E+02
   8.750  0.1051E+01  0.1009E+02
   8.760  0.1018E+01  0.1010E+02
   8.770  0.9842E+00  0.1011E+02
   8.780  0.9504E+00  0.1012E+02
   8.790  0.9164E+00  0.1013E+02
   8.800  0.8822E+00  0.1014E+02
   8.810  0.7834E+00  0.1015E+02
   8.820  0.7137E+00  0.1016E+02
   8.830  0.6845E+00  0.1016E+02
   8.840  0.6580E+00  0.1017E+02
   8.850  0.6341E+00  0.1018E+02
   8.860  0.6115E+00  0.1018E+02
   8.870  0.5915E+00  0.1019E+02
   8.880  0.5744E+00  0.1019E+02
   8.890  0.5610E+00  0.1020E+02
   8.900  0.5528E+00  0.1021E+02
   8.910  0.5472E+00  0.1021E+02
   8.920  0.5486E+00  0.1022E+02
   8.930  0.5519E+00  0.1022E+02
   8.940  0.5573E+00  0.1023E+02
   8.950  0.5645E+00  0.1023E+02
   8.960  0.5750E+00  0.1024E+02
   8.970  0.5900E+00  0.1025E+02
   8.980  0.6052E+00  0.1025E+02
   8.990  0.6207E+00  0.1026E+02
   9.000  0.6364E+00  0.1026E+02
   9.010  0.6523E+00  0.1027E+02
   9.020  0.6685E+00  0.1028E+02
   9.030  0.6850E+00  0.1028E+02
   9.040  0.7016E+00  0.1029E+02
   9.050  0.7191E+00  0.1030E+02
   9.060  0.7364E+00  0.1030E+02
   9.070  0.7528E+00  0.1031E+02
   9.080  0.7683E+00  0.1032E+02
   9.090  0.7833E+00  0.1033E+02
   9.100  0.7987E+00  0.1034E+02
   9.110  0.8193E+00  0.1034E+02
   9.120  0.8409E+00  0.1035E+02
   9.130  0.8633E+00  0.1036E+02
   9.140  0.8865E+00  0.1037E+02
   9.150  0.9106E+00  0.1038E+02
   9.160  0.9355E+00  0.1039E+02
   9.170  0.9613E+00  0.1040E+02
   9.180  0.9879E+00  0.1041E+02
   9.190  0.1015E+01  0.1042E+02
   9.200  0.1044E+01  0.1043E+02
   9.210  0.1073E+01  0.1044E+02
   9.220  0.1103E+01  0.1045E+02
   9.230  0.1134E+01  0.1046E+02
   9.240  0.1166E+01  0.1047E+02
   9.250  0.1198E+01  0.1048E+02
   9.260  0.1232E+01  0.1050E+02
   9.270  0.1266E+01  0.1051E+02
   9.280  0.1301E+01  0.1052E+02
   9.290  0.1337E+01  0.1053E+02
   9.300  0.1374E+01  0.1055E+02
   9.310  0.1414E+01  0.1056E+02
   9.320  0.1458E+01  0.1058E+02
   9.330  0.1506E+01  0.1059E+02
   9.340  0.1557E+01  0.1061E+02
   9.350  0.1611E+01  0.1062E+02
   9.360  0.1669E+01  0.1064E+02
   9.370  0.1731E+01  0.1065E+02
   9.380  0.1796E+01  0.1067E+02
   9.390  0.1864E+01  0.1069E+02
   9.400  0.1939E+01  0.1071E+02
   9.410  0.2043E+01  0.1073E+02
   9.420  0.2180E+01  0.1075E+02
   9.430  0.2347E+01  0.1077E+02
   9.440  0.2515E+01  0.1080E+02
   9.450  0.2676E+01  0.1082E+02
   9.460  0.2830E+01  0.1085E+02
   9.470  0.2978E+01  0.1088E+02
   9.480  0.3182E+01  0.1091E+02
   9.490  0.3331E+01  0.1094E+02
   9.500  0.3422E+01  0.1098E+02
   9.510  0.3456E+01  0.1101E+02
   9.520  0.3433E+01  0.1105E+02
   9.530  0.3350E+01  0.1108E+02
   9.540  0.3132E+01  0.1111E+02
   9.550  0.2865E+01  0.1114E+02
   9.560  0.2740E+01  0.1117E+02
   9.570  0.2628E+01  0.1120E+02
   9.580  0.2505E+01  0.1122E+02
   9.590  0.2372E+01  0.1125E+02
   9.600  0.2246E+01  0.1127E+02
   9.610  0.2159E+01  0.1129E+02
   9.620  0.2077E+01  0.1131E+02
   9.630  0.1999E+01  0.1133E+02
   9.640  0.1925E+01  0.1135E+02
   9.650  0.1855E+01  0.1137E+02
   9.660  0.1790E+01  0.1139E+02
   9.670  0.1729E+01  0.1141E+02
   9.680  0.1671E+01  0.1143E+02
   9.690  0.1618E+01  0.1144E+02
   9.700  0.1569E+01  0.1146E+02
   9.710  0.1525E+01  0.1147E+02
   9.720  0.1484E+01  0.1149E+02
   9.730  0.1447E+01  0.1150E+02
   9.740  0.1415E+01  0.1152E+02
   9.750  0.1398E+01  0.1153E+02
   9.760  0.1404E+01  0.1155E+02
   9.770  0.1410E+01  0.1156E+02
   9.780  0.1416E+01  0.1157E+02
   9.790  0.1430E+01  0.1159E+02
   9.800  0.1444E+01  0.1160E+02
   9.810  0.1456E+01  0.1162E+02
   9.820  0.1465E+01  0.1163E+02
   9.830  0.1472E+01  0.1165E+02
   9.840  0.1479E+01  0.1166E+02
   9.850  0.1485E+01  0.1168E+02
   9.860  0.1490E+01  0.1169E+02
   9.870  0.1494E+01  0.1171E+02
   9.880  0.1497E+01  0.1172E+02
   9.890  0.1499E+01  0.1174E+02
   9.900  0.1501E+01  0.1175E+02
   9.910  0.1501E+01  0.1177E+02
   9.920  0.1501E+01  0.1178E+02
   9.930  0.1499E+01  0.1180E+02
   9.940  0.1497E+01  0.1181E+02
   9.950  0.1493E+01  0.1183E+02
   9.960  0.1489E+01  0.1184E+02
   9.970  0.1484E+01  0.1186E+02
   9.980  0.1478E+01  0.1187E+02
   9.990  0.1471E+01  0.1188E+02
  10.000  0.1463E+01  0.1190E+02
  10.010  0.1454E+01  0.1191E+02
  10.020  0.1444E+01  0.1193E+02
  10.030  0.1433E+01  0.1194E+02
  10.040  0.1426E+01  0.1196E+02
  10.050  0.1424E+01  0.1197E+02
  10.060  0.1422E+01  0.1199E+02
  10.070  0.1420E+01  0.1200E+02
  10.080  0.1420E+01  0.1201E+02
  10.090  0.1422E+01  0.1203E+02
  10.100  0.1424E+01  0.1204E+02
  10.110  0.1429E+01  0.1206E+02
  10.120  0.1438E+01  0.1207E+02
  10.130  0.1450E+01  0.1209E+02
  10.140  0.1463E+01  0.1210E+02
  10.150  0.1477E+01  0.1211E+02
  10.160  0.1492E+01  0.1213E+02
  10.170  0.1506E+01  0.1214E+02
  10.180  0.1522E+01  0.1216E+02
  10.190  0.1538E+01  0.1217E+02
  10.200  0.1555E+01  0.1219E+02
  10.210  0.1573E+01  0.1221E+02
  10.220  0.1551E+01  0.1222E+02
  10.230  0.1488E+01  0.1224E+02
  10.240  0.1488E+01  0.1225E+02
  10.250  0.1485E+01  0.1227E+02
  10.260  0.1479E+01  0.1228E+02
  10.270  0.1470E+01  0.1230E+02
  10.280  0.1459E+01  0.1231E+02
  10.290  0.1445E+01  0.1233E+02
  10.300  0.1428E+01  0.1234E+02
  10.310  0.1408E+01  0.1235E+02
  10.320  0.1386E+01  0.1237E+02
  10.330  0.1360E+01  0.1238E+02
  10.340  0.1332E+01  0.1240E+02
  10.350  0.1301E+01  0.1241E+02
  10.360  0.1268E+01  0.1242E+02
  10.370  0.1223E+01  0.1243E+02
  10.380  0.1171E+01  0.1245E+02
  10.390  0.1143E+01  0.1246E+02
  10.400  0.1117E+01  0.1247E+02
  10.410  0.1092E+01  0.1248E+02
  10.420  0.1069E+01  0.1249E+02
  10.430  0.1047E+01  0.1250E+02
  10.440  0.1030E+01  0.1251E+02
  10.450  0.1015E+01  0.1252E+02
  10.460  0.1004E+01  0.1253E+02
  10.470  0.9993E+00  0.1254E+02
  10.480  0.9951E+00  0.1255E+02
  10.490  0.9909E+00  0.1256E+02
  10.500  0.9867E+00  0.1257E+02
  10.510  0.9827E+00  0.1258E+02
  10.520  0.9787E+00  0.1259E+02
  10.530  0.9748E+00  0.1260E+02
  10.540  0.9710E+00  0.1261E+02
  10.550  0.9672E+00  0.1262E+02
  10.560  0.9635E+00  0.1263E+02
  10.570  0.9599E+00  0.1264E+02
  10.580  0.9564E+00  0.1265E+02
  10.590  0.9529E+00  0.1266E+02
  10.600  0.9495E+00  0.1267E+02
  10.610  0.9462E+00  0.1268E+02
  10.620  0.9429E+00  0.1269E+02
  10.630  0.9397E+00  0.1270E+02
  10.640  0.9366E+00  0.1271E+02
  10.650  0.9335E+00  0.1272E+02
  10.660  0.9306E+00  0.1272E+02
  10.670  0.9277E+00  0.1273E+02
  10.680  0.9248E+00  0.1274E+02
  10.690  0.9231E+00  0.1275E+02
  10.700  0.9221E+00  0.1276E+02
  10.710  0.9211E+00  0.1277E+02
  10.720  0.9202E+00  0.1278E+02
  10.730  0.9194E+00  0.1279E+02
  10.740  0.9186E+00  0.1280E+02
  10.750  0.9179E+00  0.1281E+02
  10.760  0.9172E+00  0.1282E+02
  10.770  0.9167E+00  0.1283E+02
  10.780  0.9162E+00  0.1283E+02
  10.790  0.9158E+00  0.1284E+02
  10.800  0.9154E+00  0.1285E+02
  10.810  0.9151E+00  0.1286E+02
  10.820  0.9149E+00  0.1287E+02
  10.830  0.9147E+00  0.1288E+02
  10.840  0.9146E+00  0.1289E+02
  10.850  0.9146E+00  0.1290E+02
  10.860  0.9152E+00  0.1291E+02
  10.870  0.9176E+00  0.1292E+02
  10.880  0.9219E+00  0.1293E+02
  10.890  0.9281E+00  0.1294E+02
  10.900  0.9361E+00  0.1295E+02
  10.910  0.9460E+00  0.1295E+02
  10.920  0.9600E+00  0.1296E+02
  10.930  0.9765E+00  0.1297E+02
  10.940  0.9947E+00  0.1298E+02
  10.950  0.1014E+01  0.1299E+02
  10.960  0.1036E+01  0.1300E+02
  10.970  0.1059E+01  0.1301E+02
  10.980  0.1083E+01  0.1303E+02
  10.990  0.1110E+01  0.1304E+02
  11.000  0.1137E+01  0.1305E+02
  11.010  0.1167E+01  0.1306E+02
  11.020  0.1198E+01  0.1307E+02
  11.030  0.1230E+01  0.1308E+02
  11.040  0.1263E+01  0.1310E+02
  11.050  0.1296E+01  0.1311E+02
  11.060  0.1328E+01  0.1312E+02
  11.070  0.1359E+01  0.1313E+02
  11.080  0.1390E+01  0.1315E+02
  11.090  0.1420E+01  0.1316E+02
  11.100  0.1466E+01  0.1318E+02
  11.110  0.1783E+01  0.1319E+02
  11.120  0.1906E+01  0.1321E+02
  11.130  0.1835E+01  0.1323E+02
  11.140  0.1572E+01  0.1325E+02
  11.150  0.1562E+01  0.1326E+02
  11.160  0.1552E+01  0.1328E+02
  11.170  0.1541E+01  0.1329E+02
  11.180  0.1531E+01  0.1331E+02
  11.190  0.1520E+01  0.1333E+02
  11.200  0.1508E+01  0.1334E+02
  11.210  0.1497E+01  0.1336E+02
  11.220  0.1485E+01  0.1337E+02
  11.230  0.1474E+01  0.1338E+02
  11.240  0.1462E+01  0.1340E+02
  11.250  0.1449E+01  0.1341E+02
  11.260  0.1437E+01  0.1343E+02
  11.270  0.1424E+01  0.1344E+02
  11.280  0.1411E+01  0.1346E+02
  11.290  0.1398E+01  0.1347E+02
  11.300  0.1385E+01  0.1349E+02
  11.310  0.1372E+01  0.1350E+02
  11.320  0.1358E+01  0.1351E+02
  11.330  0.1344E+01  0.1353E+02
  11.340  0.1330E+01  0.1354E+02
  11.350  0.1317E+01  0.1355E+02
  11.360  0.1304E+01  0.1357E+02
  11.370  0.1291E+01  0.1358E+02
  11.380  0.1276E+01  0.1359E+02
  11.390  0.1262E+01  0.1360E+02
  11.400  0.1248E+01  0.1362E+02
  11.410  0.1235E+01  0.1363E+02
  11.420  0.1222E+01  0.1364E+02
  11.430  0.1210E+01  0.1365E+02
  11.440  0.1198E+01  0.1367E+02
  11.450  0.1186E+01  0.1368E+02
  11.460  0.1175E+01  0.1369E+02
  11.470  0.1164E+01  0.1370E+02
  11.480  0.1154E+01  0.1371E+02
  11.490  0.1144E+01  0.1372E+02
  11.500  0.1134E+01  0.1374E+02
  11.510  0.1124E+01  0.1375E+02
  11.520  0.1116E+01  0.1376E+02
  11.530  0.1107E+01  0.1377E+02
  11.540  0.1099E+01  0.1378E+02
  11.550  0.1091E+01  0.1379E+02
  11.560  0.1083E+01  0.1380E+02
  11.570  0.1076E+01  0.1381E+02
  11.580  0.1069E+01  0.1382E+02
  11.590  0.1063E+01  0.1383E+02
  11.600  0.1056E+01  0.1384E+02
  11.610  0.1050E+01  0.1386E+02
  11.620  0.1045E+01  0.1387E+02
  11.630  0.1044E+01  0.1388E+02
  11.640  0.1043E+01  0.1389E+02
  11.650  0.1041E+01  0.1390E+02
  11.660  0.1039E+01  0.1391E+02
  11.670  0.1037E+01  0.1392E+02
  11.680  0.1034E+01  0.1393E+02
  11.690  0.1032E+01  0.1394E+02
  11.700  0.1029E+01  0.1395E+02
  11.710  0.1026E+01  0.1396E+02
  11.720  0.1022E+01  0.1397E+02
  11.730  0.1019E+01  0.1398E+02
  11.740  0.1015E+01  0.1399E+02
  11.750  0.1011E+01  0.1400E+02
  11.760  0.1007E+01  0.1401E+02
  11.770  0.1002E+01  0.1402E+02
  11.780  0.9984E+00  0.1403E+02
  11.790  0.9958E+00  0.1404E+02
  11.800  0.9932E+00  0.1405E+02
  11.810  0.9906E+00  0.1406E+02
  11.820  0.9687E+00  0.1407E+02
  11.830  0.9582E+00  0.1408E+02
  11.840  0.9553E+00  0.1409E+02
  11.850  0.9555E+00  0.1410E+02
  11.860  0.9556E+00  0.1411E+02
  11.870  0.9554E+00  0.1412E+02
  11.880  0.9552E+00  0.1413E+02
  11.890  0.9547E+00  0.1414E+02
  11.900  0.9541E+00  0.1415E+02
  11.910  0.9533E+00  0.1416E+02
  11.920  0.9524E+00  0.1417E+02
  11.930  0.9513E+00  0.1417E+02
  11.940  0.9500E+00  0.1418E+02
  11.950  0.9486E+00  0.1419E+02
  11.960  0.9469E+00  0.1420E+02
  11.970  0.9452E+00  0.1421E+02
  11.980  0.9432E+00  0.1422E+02
  11.990  0.9411E+00  0.1423E+02
  12.000  0.9388E+00  0.1424E+02
  12.010  0.9363E+00  0.1425E+02
  12.020  0.9337E+00  0.1426E+02
  12.030  0.9309E+00  0.1427E+02
  12.040  0.9279E+00  0.1428E+02
  12.050  0.9247E+00  0.1429E+02
  12.060  0.9214E+00  0.1430E+02
  12.070  0.9179E+00  0.1431E+02
  12.080  0.9142E+00  0.1432E+02
  12.090  0.9104E+00  0.1432E+02
  12.100  0.9064E+00  0.1433E+02
  12.110  0.9022E+00  0.1434E+02
  12.120  0.8979E+00  0.1435E+02
  12.130  0.8933E+00  0.1436E+02
  12.140  0.8907E+00  0.1437E+02
  12.150  0.8915E+00  0.1438E+02
  12.160  0.8924E+00  0.1439E+02
  12.170  0.8932E+00  0.1440E+02
  12.180  0.8941E+00  0.1440E+02
  12.190  0.8950E+00  0.1441E+02
  12.200  0.8960E+00  0.1442E+02
  12.210  0.8970E+00  0.1443E+02
  12.220  0.8980E+00  0.1444E+02
  12.230  0.8990E+00  0.1445E+02
  12.240  0.9001E+00  0.1446E+02
  12.250  0.9012E+00  0.1447E+02
  12.260  0.9024E+00  0.1448E+02
  12.270  0.9035E+00  0.1449E+02
  12.280  0.9047E+00  0.1449E+02
  12.290  0.9060E+00  0.1450E+02
  12.300  0.9072E+00  0.1451E+02
  12.310  0.9085E+00  0.1452E+02
  12.320  0.9099E+00  0.1453E+02
  12.330  0.9112E+00  0.1454E+02
  12.340  0.9126E+00  0.1455E+02
  12.350  0.9140E+00  0.1456E+02
  12.360  0.9155E+00  0.1457E+02
  12.370  0.9170E+00  0.1458E+02
  12.380  0.9185E+00  0.1459E+02
  12.390  0.9200E+00  0.1460E+02
  12.400  0.9216E+00  0.1460E+02
  12.410  0.9232E+00  0.1461E+02
  12.420  0.9249E+00  0.1462E+02
  12.430  0.9265E+00  0.1463E+02
  12.440  0.9282E+00  0.1464E+02
  12.450  0.9300E+00  0.1465E+02
  12.460  0.9317E+00  0.1466E+02
  12.470  0.9335E+00  0.1467E+02
  12.480  0.9354E+00  0.1468E+02
  12.490  0.9372E+00  0.1469E+02
  12.500  0.9391E+00  0.1470E+02
  12.510  0.9411E+00  0.1471E+02
  12.520  0.9430E+00  0.1472E+02
  12.530  0.9450E+00  0.1473E+02
  12.540  0.9470E+00  0.1474E+02
  12.550  0.9491E+00  0.1474E+02
  12.560  0.9511E+00  0.1475E+02
  12.570  0.9533E+00  0.1476E+02
  12.580  0.9554E+00  0.1477E+02
  12.590  0.9576E+00  0.1478E+02
  12.600  0.9598E+00  0.1479E+02
  12.610  0.9620E+00  0.1480E+02
  12.620  0.9643E+00  0.1481E+02
  12.630  0.9666E+00  0.1482E+02
  12.640  0.9689E+00  0.1483E+02
  12.650  0.9713E+00  0.1484E+02
  12.660  0.9737E+00  0.1485E+02
  12.670  0.9760E+00  0.1486E+02
  12.680  0.9784E+00  0.1487E+02
  12.690  0.9808E+00  0.1488E+02
  12.700  0.9832E+00  0.1489E+02
  12.710  0.9855E+00  0.1490E+02
  12.720  0.9879E+00  0.1491E+02
  12.730  0.9902E+00  0.1492E+02
  12.740  0.9926E+00  0.1493E+02
  12.750  0.9949E+00  0.1494E+02
  12.760  0.9973E+00  0.1495E+02
  12.770  0.9996E+00  0.1496E+02
  12.780  0.1002E+01  0.1497E+02
  12.790  0.1004E+01  0.1498E+02
  12.800  0.1007E+01  0.1499E+02
  12.810  0.1009E+01  0.1500E+02
  12.820  0.1012E+01  0.1501E+02
  12.830  0.1017E+01  0.1502E+02
  12.840  0.1025E+01  0.1503E+02
  12.850  0.1034E+01  0.1504E+02
  12.860  0.1045E+01  0.1505E+02
  12.870  0.1058E+01  0.1506E+02
  12.880  0.1073E+01  0.1507E+02
  12.890  0.1090E+01  0.1508E+02
  12.900  0.1101E+01  0.1509E+02
  12.910  0.1107E+01  0.1510E+02
  12.920  0.1112E+01  0.1512E+02
  12.930  0.1117E+01  0.1513E+02
  12.940  0.1121E+01  0.1514E+02
  12.950  0.1125E+01  0.1515E+02
  12.960  0.1128E+01  0.1516E+02
  12.970  0.1131E+01  0.1517E+02
  12.980  0.1134E+01  0.1518E+02
  12.990  0.1136E+01  0.1519E+02
  13.000  0.1137E+01  0.1521E+02
  13.010  0.1138E+01  0.1522E+02
  13.020  0.1138E+01  0.1523E+02
  13.030  0.1138E+01  0.1524E+02
  13.040  0.1136E+01  0.1525E+02
  13.050  0.1135E+01  0.1526E+02
  13.060  0.1132E+01  0.1527E+02
  13.070  0.1129E+01  0.1528E+02
  13.080  0.1126E+01  0.1530E+02
  13.090  0.1122E+01  0.1531E+02
  13.100  0.1118E+01  0.1532E+02
  13.110  0.1112E+01  0.1533E+02
  13.120  0.1107E+01  0.1534E+02
  13.130  0.1101E+01  0.1535E+02
  13.140  0.1094E+01  0.1536E+02
  13.150  0.1086E+01  0.1537E+02
  13.160  0.1079E+01  0.1538E+02
  13.170  0.1070E+01  0.1540E+02
  13.180  0.1061E+01  0.1541E+02
  13.190  0.1052E+01  0.1542E+02
  13.200  0.1042E+01  0.1543E+02
  13.210  0.1031E+01  0.1544E+02
  13.220  0.1020E+01  0.1545E+02
  13.230  0.1008E+01  0.1546E+02
  13.240  0.9964E+00  0.1547E+02
  13.250  0.9858E+00  0.1548E+02
  13.260  0.9754E+00  0.1549E+02
  13.270  0.9652E+00  0.1550E+02
  13.280  0.9527E+00  0.1551E+02
  13.290  0.9393E+00  0.1552E+02
  13.300  0.9261E+00  0.1553E+02
  13.310  0.9131E+00  0.1553E+02
  13.320  0.9002E+00  0.1554E+02
  13.330  0.8874E+00  0.1555E+02
  13.340  0.8747E+00  0.1556E+02
  13.350  0.8622E+00  0.1557E+02
  13.360  0.8498E+00  0.1558E+02
  13.370  0.8376E+00  0.1559E+02
  13.380  0.8254E+00  0.1560E+02
  13.390  0.8135E+00  0.1560E+02
  13.400  0.8016E+00  0.1561E+02
  13.410  0.7899E+00  0.1562E+02
  13.420  0.7784E+00  0.1563E+02
  13.430  0.7670E+00  0.1564E+02
  13.440  0.7557E+00  0.1564E+02
  13.450  0.7445E+00  0.1565E+02
  13.460  0.7335E+00  0.1566E+02
  13.470  0.7226E+00  0.1567E+02
  13.480  0.7119E+00  0.1567E+02
  13.490  0.7013E+00  0.1568E+02
  13.500  0.6908E+00  0.1569E+02
  13.510  0.6805E+00  0.1569E+02
  13.520  0.6703E+00  0.1570E+02
  13.530  0.6602E+00  0.1571E+02
  13.540  0.6503E+00  0.1571E+02
  13.550  0.6405E+00  0.1572E+02
  13.560  0.6309E+00  0.1573E+02
  13.570  0.6214E+00  0.1573E+02
  13.580  0.6120E+00  0.1574E+02
  13.590  0.6028E+00  0.1574E+02
  13.600  0.5937E+00  0.1575E+02
  13.610  0.5847E+00  0.1576E+02
  13.620  0.5759E+00  0.1576E+02
  13.630  0.5672E+00  0.1577E+02
  13.640  0.5587E+00  0.1577E+02
  13.650  0.5502E+00  0.1578E+02
  13.660  0.5417E+00  0.1578E+02
  13.670  0.5330E+00  0.1579E+02
  13.680  0.5252E+00  0.1580E+02
  13.690  0.5173E+00  0.1580E+02
  13.700  0.5093E+00  0.1581E+02
  13.710  0.5011E+00  0.1581E+02
  13.720  0.4927E+00  0.1582E+02
  13.730  0.4842E+00  0.1582E+02
  13.740  0.4754E+00  0.1583E+02
  13.750  0.4665E+00  0.1583E+02
  13.760  0.4192E+00  0.1583E+02
  13.770  0.3928E+00  0.1584E+02
  13.780  0.3888E+00  0.1584E+02
  13.790  0.3884E+00  0.1585E+02
  13.800  0.3881E+00  0.1585E+02
  13.810  0.3879E+00  0.1585E+02
  13.820  0.3878E+00  0.1586E+02
  13.830  0.3878E+00  0.1586E+02
  13.840  0.3877E+00  0.1587E+02
  13.850  0.3876E+00  0.1587E+02
  13.860  0.3876E+00  0.1587E+02
  13.870  0.3868E+00  0.1588E+02
  13.880  0.3852E+00  0.1588E+02
  13.890  0.3828E+00  0.1588E+02
  13.900  0.3795E+00  0.1589E+02
  13.910  0.3754E+00  0.1589E+02
  13.920  0.3704E+00  0.1590E+02
  13.930  0.3646E+00  0.1590E+02
  13.940  0.3579E+00  0.1590E+02
  13.950  0.3504E+00  0.1591E+02
  13.960  0.3420E+00  0.1591E+02
  13.970  0.3328E+00  0.1591E+02
  13.980  0.3228E+00  0.1592E+02
  13.990  0.3119E+00  0.1592E+02
  14.000  0.3002E+00  0.1592E+02
  14.010  0.2876E+00  0.1593E+02
  14.020  0.2741E+00  0.1593E+02
  14.030  0.2599E+00  0.1593E+02
  14.040  0.2448E+00  0.1593E+02
  14.050  0.2288E+00  0.1594E+02
  14.060  0.2120E+00  0.1594E+02
  14.070  0.1943E+00  0.1594E+02
  14.080  0.1758E+00  0.1594E+02
  14.090  0.1565E+00  0.1594E+02
  14.100  0.1417E+00  0.1595E+02
  14.110  0.1297E+00  0.1595E+02
  14.120  0.1172E+00  0.1595E+02
  14.130  0.1044E+00  0.1595E+02
  14.140  0.9123E-01  0.1595E+02
  14.150  0.8701E-01  0.1595E+02
  14.160  0.8597E-01  0.1595E+02
  14.170  0.8494E-01  0.1595E+02
  14.180  0.8391E-01  0.1595E+02
  14.190  0.8289E-01  0.1595E+02
  14.200  0.8188E-01  0.1596E+02
  14.210  0.8087E-01  0.1596E+02
  14.220  0.7987E-01  0.1596E+02
  14.230  0.7888E-01  0.1596E+02
  14.240  0.7789E-01  0.1596E+02
  14.250  0.7691E-01  0.1596E+02
  14.260  0.7593E-01  0.1596E+02
  14.270  0.7496E-01  0.1596E+02
  14.280  0.7399E-01  0.1596E+02
  14.290  0.7304E-01  0.1596E+02
  14.300  0.7209E-01  0.1596E+02
  14.310  0.7114E-01  0.1596E+02
  14.320  0.7020E-01  0.1596E+02
  14.330  0.6927E-01  0.1597E+02
  14.340  0.6834E-01  0.1597E+02
  14.350  0.6742E-01  0.1597E+02
  14.360  0.6651E-01  0.1597E+02
  14.370  0.6560E-01  0.1597E+02
  14.380  0.6470E-01  0.1597E+02
  14.390  0.6380E-01  0.1597E+02
  14.400  0.6291E-01  0.1597E+02
  14.410  0.6203E-01  0.1597E+02
  14.420  0.6115E-01  0.1597E+02
  14.430  0.6028E-01  0.1597E+02
  14.440  0.5942E-01  0.1597E+02
  14.450  0.5856E-01  0.1597E+02
  14.460  0.5771E-01  0.1597E+02
  14.470  0.5686E-01  0.1597E+02
  14.480  0.5603E-01  0.1597E+02
  14.490  0.5519E-01  0.1598E+02
  14.500  0.5437E-01  0.1598E+02
  14.510  0.5355E-01  0.1598E+02
  14.520  0.5273E-01  0.1598E+02
  14.530  0.5192E-01  0.1598E+02
  14.540  0.5112E-01  0.1598E+02
  14.550  0.5033E-01  0.1598E+02
  14.560  0.4954E-01  0.1598E+02
  14.570  0.4875E-01  0.1598E+02
  14.580  0.4798E-01  0.1598E+02
  14.590  0.4721E-01  0.1598E+02
  14.600  0.4644E-01  0.1598E+02
  14.610  0.4568E-01  0.1598E+02
  14.620  0.4493E-01  0.1598E+02
  14.630  0.4419E-01  0.1598E+02
  14.640  0.4345E-01  0.1598E+02
  14.650  0.4271E-01  0.1598E+02
  14.660  0.4199E-01  0.1598E+02
  14.670  0.4127E-01  0.1598E+02
  14.680  0.4055E-01  0.1598E+02
  14.690  0.3984E-01  0.1598E+02
  14.700  0.3914E-01  0.1599E+02
  14.710  0.3845E-01  0.1599E+02
  14.720  0.3776E-01  0.1599E+02
  14.730  0.3707E-01  0.1599E+02
  14.740  0.3640E-01  0.1599E+02
  14.750  0.3573E-01  0.1599E+02
  14.760  0.3506E-01  0.1599E+02
  14.770  0.3440E-01  0.1599E+02
  14.780  0.3375E-01  0.1599E+02
  14.790  0.3310E-01  0.1599E+02
  14.800  0.3246E-01  0.1599E+02
  14.810  0.3183E-01  0.1599E+02
  14.820  0.3120E-01  0.1599E+02
  14.830  0.3058E-01  0.1599E+02
  14.840  0.2997E-01  0.1599E+02
  14.850  0.2936E-01  0.1599E+02
  14.860  0.2876E-01  0.1599E+02
  14.870  0.2816E-01  0.1599E+02
  14.880  0.2757E-01  0.1599E+02
  14.890  0.2699E-01  0.1599E+02
  14.900  0.2641E-01  0.1599E+02
  14.910  0.2584E-01  0.1599E+02
  14.920  0.2528E-01  0.1599E+02
  14.930  0.2472E-01  0.1599E+02
  14.940  0.2417E-01  0.1599E+02
  14.950  0.2362E-01  0.1599E+02
  14.960  0.2308E-01  0.1599E+02
  14.970  0.2255E-01  0.1599E+02
  14.980  0.2202E-01  0.1599E+02
  14.990  0.2150E-01  0.1599E+02
  15.000  0.2098E-01  0.1599E+02
  15.010  0.2048E-01  0.1599E+02
  15.020  0.1997E-01  0.1599E+02
  15.030  0.1948E-01  0.1599E+02
  15.040  0.1899E-01  0.1600E+02
  15.050  0.1850E-01  0.1600E+02
  15.060  0.1803E-01  0.1600E+02
  15.070  0.1755E-01  0.1600E+02
  15.080  0.1709E-01  0.1600E+02
  15.090  0.1663E-01  0.1600E+02
  15.100  0.1618E-01  0.1600E+02
  15.110  0.1573E-01  0.1600E+02
  15.120  0.1529E-01  0.1600E+02
  15.130  0.1486E-01  0.1600E+02
  15.140  0.1443E-01  0.1600E+02
  15.150  0.1401E-01  0.1600E+02
  15.160  0.1360E-01  0.1600E+02
  15.170  0.1319E-01  0.1600E+02
  15.180  0.1278E-01  0.1600E+02
  15.190  0.1239E-01  0.1600E+02
  15.200  0.1200E-01  0.1600E+02
  15.210  0.1161E-01  0.1600E+02
  15.220  0.1124E-01  0.1600E+02
  15.230  0.1087E-01  0.1600E+02
  15.240  0.1050E-01  0.1600E+02
  15.250  0.1014E-01  0.1600E+02
  15.260  0.9789E-02  0.1600E+02
  15.270  0.9442E-02  0.1600E+02
  15.280  0.9102E-02  0.1600E+02
  15.290  0.8768E-02  0.1600E+02
  15.300  0.8441E-02  0.1600E+02
  15.310  0.8119E-02  0.1600E+02
  15.320  0.7804E-02  0.1600E+02
  15.330  0.7495E-02  0.1600E+02
  15.340  0.7193E-02  0.1600E+02
  15.350  0.6896E-02  0.1600E+02
  15.360  0.6606E-02  0.1600E+02
  15.370  0.6322E-02  0.1600E+02
  15.380  0.6044E-02  0.1600E+02
  15.390  0.5773E-02  0.1600E+02
  15.400  0.5507E-02  0.1600E+02
  15.410  0.5248E-02  0.1600E+02
  15.420  0.4996E-02  0.1600E+02
  15.430  0.4749E-02  0.1600E+02
  15.440  0.4509E-02  0.1600E+02
  15.450  0.4275E-02  0.1600E+02
  15.460  0.4047E-02  0.1600E+02
  15.470  0.3825E-02  0.1600E+02
  15.480  0.3610E-02  0.1600E+02
  15.490  0.3401E-02  0.1600E+02
  15.500  0.3198E-02  0.1600E+02
  15.510  0.3001E-02  0.1600E+02
  15.520  0.2811E-02  0.1600E+02
  15.530  0.2627E-02  0.1600E+02
  15.540  0.2449E-02  0.1600E+02
  15.550  0.2277E-02  0.1600E+02
  15.560  0.2112E-02  0.1600E+02
  15.570  0.1953E-02  0.1600E+02
  15.580  0.1800E-02  0.1600E+02
  15.590  0.1653E-02  0.1600E+02
  15.600  0.1512E-02  0.1600E+02
  15.610  0.1378E-02  0.1600E+02
  15.620  0.1250E-02  0.1600E+02
  15.630  0.1128E-02  0.1600E+02
  15.640  0.1013E-02  0.1600E+02
  15.650  0.9035E-03  0.1600E+02
  15.660  0.8005E-03  0.1600E+02
  15.670  0.7037E-03  0.1600E+02
  15.680  0.6131E-03  0.1600E+02
  15.690  0.5287E-03  0.1600E+02
  15.700  0.4506E-03  0.1600E+02
  15.710  0.3788E-03  0.1600E+02
  15.720  0.3131E-03  0.1600E+02
  15.730  0.2538E-03  0.1600E+02
  15.740  0.2006E-03  0.1600E+02
  15.750  0.1537E-03  0.1600E+02
  15.760  0.1130E-03  0.1600E+02
  15.770  0.7859E-04  0.1600E+02
  15.780  0.5039E-04  0.1600E+02
  15.790  0.2844E-04  0.1600E+02
  15.800  0.1272E-04  0.1600E+02
  15.810  0.3242E-05  0.1600E+02
  15.820  0.1183E-08  0.1600E+02
  15.830  0.0000E+00  0.1600E+02
  15.840  0.0000E+00  0.1600E+02
  15.850  0.0000E+00  0.1600E+02
  15.860  0.0000E+00  0.1600E+02
  15.870  0.0000E+00  0.1600E+02
  15.880  0.0000E+00  0.1600E+02
  15.890  0.0000E+00  0.1600E+02
  15.900  0.0000E+00  0.1600E+02
  15.910  0.0000E+00  0.1600E+02
  15.920  0.0000E+00  0.1600E+02
  15.930  0.0000E+00  0.1600E+02
  15.940  0.0000E+00  0.1600E+02
  15.950  0.0000E+00  0.1600E+02
  15.960  0.0000E+00  0.1600E+02
  15.970  0.0000E+00  0.1600E+02
  15.980  0.0000E+00  0.1600E+02
  15.990  0.0000E+00  0.1600E+02
  16.000  0.0000E+00  0.1600E+02
